File: tensile_tests/04.03.25_BL_Force_Paper1.csv
,Time,Force (Newtons),Distance (millimeters)
0,2,-0.000248634,0.0
25,331,-0.000516355,0.0
50,684,-3.09263e-05,0.0
75,1031,0.000556492,0.0
100,1478,0.00036232,0.0
125,1824,0.00148714,0.0
150,2175,0.00137829,0.0
175,2526,0.00110468,0.0
200,2874,0.00185783,0.0
225,3230,0.00216576,0.0
250,3577,0.0026002,0.0
275,3922,0.00266786,0.0
300,4262,0.00294245,0.0
325,4614,0.00279927,0.0
350,4978,0.00252567,0.0
375,5311,0.00266786,0.0
400,5655,0.00233738,0.0
425,5986,0.00238249,0.0
450,6314,0.00257176,0.0
475,6642,0.00229717,0.0
500,6997,0.00277083,0.0
525,7358,0.00234326,0.0
550,7715,0.00245702,0.0
575,8061,0.00240014,0.0
600,8414,0.00305621,0.0
625,8798,0.00236582,0.0
650,9152,0.00289047,0.0
675,9506,0.0026051,0.0
700,9876,0.00262275,0.0
725,10245,0.00233738,0.0
750,10606,0.00265708,0.0
775,10975,0.00255999,0.0
800,11327,0.00272572,0.0
825,11690,0.00238837,0.0
850,12060,0.00214909,0.0
875,12417,0.00250802,0.0
900,12780,0.00237759,0.0
925,13136,0.00176075,0.0
950,13497,0.00198924,0.0
975,13866,0.00139594,0.0
1000,14226,0.00181763,0.0
1025,14583,0.00133318,0.0
1050,14951,0.00148126,0.0
1075,15317,0.00119,0.0
1100,15686,0.00112136,0.0
1125,16040,0.00156069,0.0
1150,16407,0.00151558,0.0
1175,16776,0.00177252,0.0
1200,17146,0.00154402,0.0
1225,17513,0.00149793,0.0
1250,17871,0.00133808,0.0
1275,18245,0.00212654,0.0
1300,18619,0.00187451,0.0
1325,18987,0.00162346,0.0
1350,19357,0.00156069,0.0
1375,19721,0.00180684,0.0
1400,20091,0.00171564,0.0
1425,20456,0.00180096,0.0
1450,20819,0.00166955,0.0
1475,21194,0.00156069,0.0
1500,21549,0.00193825,0.0
1525,21912,0.0017784,0.0
1550,22282,0.0016009,0.0
1575,22646,0.00188039,0.0
1600,23009,0.00169799,0.0
1625,23371,0.00195492,0.0
1650,23731,0.00229129,0.0
1675,24105,0.00291989,0.0
1700,24468,0.00341611,0.0
1725,24832,0.00334746,0.0
1750,25197,0.00331314,0.0
1775,25569,0.00361617,0.0
1800,25936,0.00337002,0.0
1825,26288,0.00346711,0.0
1850,26653,0.00355831,0.0
1875,27028,0.00399765,0.0
1900,27397,0.00349064,0.0
1925,27755,0.00448896,0.0
1950,28115,0.00447229,0.0
1975,28484,0.00456349,0.0
2000,28859,0.00514502,0.0
2025,29220,0.00508815,0.0
2050,29592,0.00541373,0.0
2075,29952,0.00538529,0.0
2100,30314,0.00595015,0.0
2125,30682,0.0054706,0.0
2150,31055,0.0059727,0.0
2175,31426,0.00608156,0.0
2200,31807,0.00645813,0.0
2225,32185,0.00626396,0.0
2250,32555,0.00589916,0.0
2275,32921,0.00616688,0.0
2300,33280,0.0063434,0.0
2325,33642,0.00645813,0.0
2350,33999,0.00578442,0.0
2375,34355,0.00606391,0.0
2400,34726,0.00595603,0.0
2425,35095,0.00650324,0.0
2450,35459,0.00645225,0.0
2475,35830,0.00653757,0.0
2500,36194,0.00680627,0.0
2525,36545,0.00626985,0.0
2550,36912,0.00658366,0.0
2575,37280,0.00671507,0.0
2600,37650,0.00682883,0.0
2625,38014,0.00662387,0.0
2650,38391,0.00674351,0.0
2675,38759,0.0065209,0.0
2700,39124,0.00690924,0.0
2725,39487,0.00681804,0.0
2750,39859,0.00633849,0.0
2775,40223,0.00626985,0.0
2800,40590,0.00659543,0.0
2825,40956,0.00645813,0.0
2850,41310,0.0062012,0.0
2875,41664,0.00657189,0.0
2900,42027,0.00644637,0.0
2925,42397,0.00701123,0.0
2950,42757,0.00698867,0.0
2975,43115,0.0073878,0.0
3000,43484,0.00784479,0.0
3025,43852,0.0072966,0.0
3050,44225,0.00755942,0.0
3075,44588,0.00760551,0.0
3100,44957,0.00795365,0.0
3125,45433,0.00802131,0.0
3150,45810,0.00848419,0.0
3175,46178,0.00794188,0.0
3200,46546,0.00789089,0.0
3225,46925,0.00773104,0.0
3250,47290,0.0075251,0.0
3275,47659,0.007936,0.0
3300,48027,0.00754765,0.0
3325,48392,0.0072966,0.0
3350,48761,0.00761042,0.0
3375,49128,0.00757119,0.0
3400,49496,0.0075653,0.0
3425,49863,0.00765062,0.0
3450,50233,0.00733681,0.0
3475,50585,0.00751431,0.0
3500,50922,0.00751921,0.0
3525,51258,0.00795365,0.0
3550,51613,0.00774182,0.0
3575,51966,0.00781047,0.0
3600,52329,0.00793011,0.0
3625,52697,0.00793011,0.0
3650,53055,0.0082959,0.0
3675,53421,0.00798797,0.0
3700,53788,0.00885488,0.0
3725,54160,0.00839887,0.0
3750,54524,0.00837533,0.0
3775,54887,0.00862638,0.0
3800,55249,0.00897452,0.0
3825,55610,0.00899806,0.0
3850,55984,0.00953448,0.0
3875,56355,0.00943151,0.0
3900,56711,0.00969433,0.0
3925,57074,0.0100248,0.0
3950,57455,0.0100248,0.0
3975,57825,0.00980809,0.0
4000,58193,0.0100366,0.0
4025,58551,0.0101445,0.0
4050,58920,0.00988262,0.0
4075,59290,0.0101052,0.0
4100,59664,0.0101052,0.0
4125,60026,0.010014,0.0
4150,60383,0.0101905,0.0
4175,60743,0.00967668,0.0
4200,61112,0.00999049,0.0
4225,61485,0.0101503,0.0
4250,61856,0.0100533,0.0
4275,62224,0.010116,0.0
4300,62564,0.00980809,0.0
4325,62914,0.00977376,0.0
4350,63269,0.0100591,0.0
4375,63629,0.0100993,0.0
4400,63986,0.00999637,0.0
4425,64349,0.00987085,0.0
4450,64730,0.0104416,0.0
4475,65103,0.00976298,0.0
4500,65465,0.0100023,0.0
4525,65835,0.0101052,0.0
4550,66202,0.0100425,0.0
4575,66566,0.00968256,0.0
4600,66926,0.00961391,0.0
4625,67292,0.00973944,0.0
4650,67664,0.00937463,0.0
4675,68035,0.010065,0.0
4700,68395,0.00994538,0.0
4725,68785,0.00947172,0.0
4750,69145,0.00956292,0.0
4775,69512,0.00977376,0.0
4800,69875,0.00995126,0.0
4825,70251,0.0100768,0.0
4850,70625,0.0100533,0.0
4875,70987,0.00938052,0.0
4900,71352,0.00933442,0.0
4925,71725,0.00941974,0.0
4950,72091,0.00907161,0.0
4975,72460,0.00975709,0.0
5000,72831,0.0095286,0.0
5025,73184,0.00916869,0.0
5050,73544,0.00931187,0.0
5075,73909,0.00979632,0.0
5100,74274,0.00916869,0.0
5125,74643,0.0095688,0.0
5150,75007,0.00916281,0.0
5175,75378,0.00941974,0.0
5200,75747,0.00919223,0.0
5225,76107,0.00927755,0.0
5250,76465,0.00975121,0.0
5275,76824,0.00964824,0.0
5300,77193,0.00939719,0.0
5325,77554,0.00972865,0.0
5350,77916,0.0094825,0.0
5375,78283,0.00962568,0.0
5400,78655,0.00910593,0.0
5425,79026,0.00932266,0.0
5450,79385,0.00922557,0.0
5475,79759,0.00871857,0.0
5500,80127,0.00934619,0.0
5525,80489,0.00941484,0.0
5550,80846,0.00944818,0.0
5575,81218,0.00977965,0.0
5600,81578,0.00934619,0.0
5625,81955,0.00888332,0.0
5650,82315,0.00903238,0.0
5675,82683,0.00875779,0.0
5700,83048,0.00876368,0.0
5725,83404,0.0091177,0.0
5750,83765,0.00925989,0.0
5775,84132,0.00886665,0.0
5800,84500,0.0093913,0.0
5825,84878,0.00916869,0.0
5850,85262,0.00900394,0.0
5875,85625,0.00928343,0.0
5900,85997,0.00867248,0.0
5925,86365,0.00943151,0.0
5950,86729,0.00898629,0.0
5975,87082,0.00897452,0.0
6000,87464,0.00932266,9.765625e-05
6025,88465,0.0100425,0.0230469
6050,89414,0.0117478,0.084668
6075,90303,0.0161648,0.171191
6100,91292,0.0558317,0.270117
6125,92199,0.163438,0.360742
6150,93112,0.290763,0.452051
6175,94201,0.478032,0.5609375
6200,95111,0.629248,0.651953
6225,96018,0.795401,0.742676
6250,97021,0.962426,0.842969
6275,97947,1.09021,0.935547
6300,98856,1.20255,1.02646
6325,99872,1.27994,1.12803
6350,100928,1.34595,1.23359
6375,101938,1.34725,1.33467
6400,102949,1.40693,1.43564
6425,103897,1.32366,1.53047
6450,104825,1.28514,1.62334
6475,105757,0.927057,1.7165
6500,106693,0.786606,1.81006
6525,107628,0.766881,1.90352
6550,108556,0.633392,1.99639
6575,109599,0.487689,2.10068
6600,110547,0.441049,2.19551
6625,111608,0.276512,2.30156
6650,112548,0.169499,2.39561
6675,113488,0.133502,2.48955
6700,114570,0.0641183,2.59775
6725,115523,0.0819027,2.69316
6750,116484,0.0546323,2.78916
6775,117562,0.0341609,2.89697
6800,118600,0.0259243,3.00078
6825,119656,0.0266441,3.10645
6850,120708,0.0200747,3.21152
6875,121676,0.0172386,3.3084
6900,122649,0.0157146,3.40566
6925,123727,0.0160343,3.51348
6950,124707,0.0147497,3.61143
6975,125766,0.0132943,3.71738
7000,126762,0.0132316,3.81699
7025,127764,0.0128207,3.91719
7050,128992,0.0119244,4.03994
7075,129964,0.011183,4.13711
7100,130994,0.0103043,4.24014
7125,132111,0.00898629,4.35186
7150,133122,0.00882644,4.45293
7175,134138,0.00827334,4.55449
7200,135248,0.00743978,4.66553
7225,136266,0.00722894,4.76738
7250,137400,0.00635516,4.88076
7275,138470,0.00501361,4.9877
7281,138717,0.00483709,5.0