File: tensile_tests/04.03.25_BslA.csv
,Time,Force (Newtons),Distance (millimeters)
0,8,0.000589379,0.0
9,137,0.000876714,0.0
18,266,0.00108658,0.0
27,397,0.00128467,0.0
36,531,0.00114149,0.0
45,659,0.00103068,0.0
54,801,0.000926727,0.0
63,936,0.000854158,0.0
72,1075,0.000540345,0.0
81,1210,0.000291257,0.0
90,1336,0.000186325,0.0
99,1467,0.000208881,0.0
108,1591,0.000114737,0.0
117,1717,-2.25563e-05,0.0
126,1843,-0.000320678,0.0
135,2052,-0.000265761,0.0
144,2171,-0.00016083,0.0
153,2297,-0.000194173,0.0
162,2421,-0.000315775,0.0
171,2546,-0.000420706,0.0
180,2667,-0.000497198,0.0
189,2785,-0.000767862,0.0
198,2912,-0.000889464,0.0
207,3039,-0.000966937,0.0
216,3174,-0.0010601,0.0
225,3302,-0.0010601,0.0
234,3426,-0.00106598,0.0
243,3559,-0.00102185,0.0
252,3685,-0.00111011,0.0
261,3811,-0.00121504,0.0
270,3931,-0.00122093,0.0
279,4050,-0.0012425,0.0
288,4178,-0.00130919,0.0
297,4314,-0.00142981,0.0
306,4448,-0.00147394,0.0
315,4581,-0.00140824,0.0
324,4714,-0.0015573,0.0
333,4848,-0.00160143,0.0
342,4986,-0.00165144,0.0
351,5121,-0.00167302,0.0
360,5258,-0.00178873,0.0
369,5392,-0.00188288,0.0
378,5534,-0.00197702,0.0
387,5669,-0.00204861,0.0
396,5798,-0.00207018,0.0
405,5934,-0.00196035,0.0
414,6070,-0.00188876,0.0
423,6206,-0.00177795,0.0
432,6344,-0.0017397,0.0
441,6481,-0.00171715,0.0
450,6616,-0.0017446,0.0
459,6745,-0.00182208,0.0
468,6879,-0.00187699,0.0
477,7018,-0.00186032,0.0
486,7148,-0.00184954,0.0
495,7286,-0.00182796,0.0
504,7506,-0.00171126,0.0005859375
513,7687,-0.00097184,0.00253906
522,7875,0.00163673,0.00605469
531,8051,0.00856317,0.0108398
540,8268,0.022162,0.0183594
549,8451,0.0429727,0.0264648
558,8638,0.0702254,0.0360352
567,8825,0.102819,0.047168
576,9013,0.146815,0.0600586
585,9204,0.201434,0.0745117
594,9390,0.27016,0.0901367
603,9578,0.361293,0.10752
612,9767,0.480372,0.12627
621,10000,0.63635,0.149609
630,10167,0.824492,0.166309
639,10352,1.03196,0.184766
648,10538,1.25728,0.203418
657,10782,1.6127,0.227734
666,10967,1.81041,0.246289
675,11160,1.88113,0.265527
684,11355,1.92243,0.285059
693,11614,2.01114,0.3109375
702,11802,2.14704,0.329785
711,11995,2.35712,0.349121
720,12188,2.57013,0.368359
729,12385,2.76507,0.387988
738,12629,3.04531,0.412402
747,12817,3.21346,0.43125
756,13006,3.38141,0.450098
765,13204,3.55477,0.469922
774,13447,3.7988,0.494141
783,13639,3.96046,0.513477
792,13833,4.10887,0.5328125
801,14023,4.25159,0.551758
810,14217,4.39411,0.571191
819,14469,4.52333,0.596387
828,14664,4.6439,0.615918
837,14868,4.82159,0.636328
846,15091,4.93216,0.658691
855,15347,5.09132,0.684277
864,15540,5.1975,0.703516
873,15749,5.31002,0.724414
882,15947,5.40584,0.744141
891,16161,5.48422,0.765625
900,16449,5.60592,0.794336
909,16653,5.69004,0.814844
918,16858,5.76321,0.835254
927,17056,5.8304,0.855176
936,17301,5.91929,0.87959
945,17503,6.0164,0.899805
954,17713,6.09205,0.920801
963,17916,6.17332,0.941113
972,18165,6.2493,0.966016
981,18371,6.3241,0.986621
990,18575,6.39991,1.00703
999,18789,6.5053,1.02842
1008,19000,6.56424,1.04941
1017,19260,6.64514,1.07549
1026,19464,6.70116,1.0959
1035,19672,6.75274,1.1167
1044,19877,6.79054,1.13721
1053,20134,6.83798,1.16289
1062,20340,6.83079,1.1835
1071,20555,6.70169,1.20508
1080,20769,5.91531,1.22646
1089,20975,5.03787,1.24707
1098,21242,3.84466,1.27373
1107,21445,2.86169,1.29404
1116,21660,1.97746,1.31543
1125,21869,1.62523,1.33643
1134,22130,0.85915,1.3625
1143,22336,0.460532,1.38301
1152,22541,0.379973,1.40361
1161,22791,0.325724,1.42861
1170,23002,0.301127,1.44971
1179,23272,0.267373,1.47666
1188,23484,0.244614,1.49785
1197,23700,0.223383,1.51943
1206,23907,0.20117,1.54014
1215,24173,0.190645,1.5668
1224,24384,0.177373,1.58789
1233,24598,0.169398,1.60928
1242,24813,0.162295,1.63076
1251,25030,0.155104,1.65244
1260,25292,0.144906,1.67871
1269,25502,0.140204,1.69971
1278,25716,0.134138,1.72109
1287,25931,0.130011,1.74258
1296,26200,0.124519,1.76943
1305,26419,0.120971,1.79131
1314,26641,0.117019,1.81357
1323,26860,0.111511,1.83555
1332,27086,0.109348,1.85801
1341,27366,0.106633,1.88604
1350,27584,0.104221,1.90791
1359,27806,0.101241,1.93008
1368,28026,0.0966102,1.95205
1377,28302,0.093172,1.97969
1386,28523,0.0908655,2.00176
1395,28834,0.0868036,2.03281
1404,29051,0.0818698,2.05449
1413,29275,0.0789671,2.07695
1422,29555,0.0745737,2.10488
1431,29779,0.071158,2.12734
1440,30001,0.0670079,2.14951
1449,30222,0.0647337,2.17158
1458,30494,0.0608434,2.19893
1467,30756,0.0581279,2.2251
1476,30987,0.0542533,2.24814
1485,31220,0.049855,2.27139
1494,31488,0.0431218,2.29824
1503,31717,0.0381273,2.32109
1512,31942,0.0358374,2.34365
1521,32169,0.0336407,2.36631
1530,32400,0.0300927,2.38945
1539,32674,0.0260357,2.41689
1548,32903,0.0234477,2.43975
1557,33131,0.021201,2.4625
1566,33359,0.0185748,2.48535
1575,33643,0.0159858,2.51377
1584,33877,0.0141314,2.53711
1593,34104,0.0120288,2.55977
1602,34329,0.010804,2.58232
1611,34558,0.00982136,2.60527
1620,34851,0.00824837,2.63447
1629,35078,0.00685779,2.65723
1638,35310,0.00573199,2.68047
1647,35534,0.00431983,2.70283
1656,35847,0.00278509,2.73408
1665,36099,0.00169263,2.75928
1674,36327,0.00140039,2.78213
1683,36554,0.000843371,2.80479
1692,36852,-0.000525637,2.83457
1701,37090,-0.00109344,2.8583
1710,37336,-0.0017446,2.88311
1719,37574,-0.00219179,2.90684
1728,37813,-0.00260563,2.93066
1737,38102,-0.0033676,2.95957
1746,38337,-0.00399131,2.98311
1755,38582,-0.00502297,3.00752
1764,38817,-0.00548682,3.03115
1773,39149,-0.00570159,3.06426
1782,39395,-0.00591145,3.08896
1791,39630,-0.0060713,3.1124
1800,39866,-0.00603894,3.13594
1809,40147,-0.00683327,3.16406
1818,40383,-0.00770509,3.1877
1827,40624,-0.0077551,3.21182
1836,40872,-0.00760604,3.23652
1845,41121,-0.00753445,3.26152
1854,41404,-0.00755602,3.28975
1863,41647,-0.00728046,3.31406
1872,41891,-0.00730203,3.33848
1881,42136,-0.00745698,3.36299
1890,42435,-0.00743442,3.39287
1899,42679,-0.00736283,3.41729
1908,42925,-0.00753445,3.44189
1917,43173,-0.00741285,3.4667
1926,43412,-0.0073187,3.49053
1935,43712,-0.00742952,3.52061
1944,43957,-0.00737951,3.54502
1953,44208,-0.00699312,3.57021
1962,44495,-0.00705392,3.59883
1971,44836,-0.0071922,3.63291
1980,45080,-0.00678326,3.65732
1989,45331,-0.006695,3.68242
1998,45569,-0.0066342,3.70625
2007,45823,-0.00662341,3.73164
2016,46116,-0.00694311,3.76094
2025,46343,-0.00694899,3.78369
2034,46557,-0.00692742,3.80508
2043,46769,-0.00704804,3.82627
2052,46995,-0.00697155,3.84893
2061,47238,-0.0070706,3.87314
2070,47469,-0.00697645,3.89629
2079,47712,-0.00673913,3.92051
2088,47941,-0.00691565,3.94346
2097,48288,-0.00680582,3.97813
2106,48539,-0.0068166,4.00322
2115,48788,-0.00662341,4.028125
2124,49033,-0.00656261,4.05254
2133,49283,-0.00643022,4.07764
2142,49528,-0.00650181,4.10215
2151,49772,-0.00649102,4.12656
2160,50015,-0.00638021,4.15088
2169,50258,-0.00633608,4.1751
2178,50498,-0.00614289,4.19912
2187,50824,-0.00603894,4.23164
2196,51120,-0.00616544,4.26143
2205,51372,-0.00596637,4.28652
2214,51620,-0.00609385,4.31143
2223,51873,-0.00604972,4.33652
2232,52179,-0.0060105,4.36729
2241,52505,-0.00590066,4.3999
2250,52754,-0.00592224,4.42471
2259,52998,-0.00576827,4.44912
2268,53257,-0.00580652,4.475
2277,53505,-0.00583986,4.4998
2286,53758,-0.00568492,4.5251
2295,54013,-0.00559175,4.55059
2304,54272,-0.00574081,4.57646
2313,54536,-0.00568001,4.60293
2322,54789,-0.0055692,4.62822
2331,55065,-0.00557998,4.65586
2340,55319,-0.00555253,4.68115
2349,55628,-0.00564079,4.71211
2358,55888,-0.00538189,4.73809
2367,56144,-0.00528775,4.76367
2376,56413,-0.00547603,4.790625
2385,56669,-0.00537601,4.81621
2394,56927,-0.00542602,4.8418
2403,57189,-0.00547603,4.86816
2412,57450,-0.00558587,4.89424
2421,57711,-0.0055692,4.92041
2430,57973,-0.00543092,4.94658
2439,58243,-0.00530442,4.97354
2448,58517,-0.00535443,4.99795
2451,58608,-0.00545936,5.0