File: tensile_tests/04.03.25_WT_idx2.csv
,Time,Force (Newtons),Distance (millimeters)
0,3,0.000269636,0.0
9,153,0.000479498,0.0
18,272,0.000545203,0.0
27,406,0.000495189,0.0
36,543,0.000352012,0.0
45,678,0.00029121,0.0
54,812,0.000219622,0.0
63,939,0.000175492,0.0
72,1069,0.000148033,0.0
81,1201,0.000142149,0.0
90,1332,7.64448e-05,0.0
99,1458,-1.02774e-06,0.0
108,1588,-1.7699e-05,0.0
117,1718,0.000142149,0.0
126,1850,0.000330437,0.0
135,1978,0.000362799,0.0
144,2105,0.000219622,0.0
153,2235,0.000109787,0.0
162,2365,0.000114691,0.0
171,2497,0.000247081,0.0
180,2626,0.000352012,0.0
189,2762,0.000385354,0.0
198,2892,0.000462827,0.0
207,3025,0.000429484,0.0
216,3163,0.000446156,0.0
225,3293,0.000540299,0.0
234,3428,0.000589333,0.0
243,3549,0.000490285,0.0
252,3677,0.000324553,0.0
261,3798,0.000318669,0.0
270,3926,0.000479498,0.0
279,4050,0.000660921,0.0
288,4178,0.000666805,0.0
297,4300,0.000666805,0.0
306,4535,0.000815866,0.0
315,4660,0.000870783,0.0
324,4783,0.000815866,0.0
333,4907,0.000738394,0.0
342,5033,0.000616791,0.0
351,5156,0.000484401,0.0
360,5283,0.000391238,0.0
369,5410,0.00051186,0.0
378,5535,0.000639347,0.0
387,5663,0.000837441,0.0
396,5791,0.000826654,0.0
405,5912,0.000832538,0.0
414,6040,0.000561874,0.0
423,6161,0.000506957,0.0
432,6280,0.000584429,0.0
441,6406,0.000589333,0.0
450,6533,0.000567758,0.0
459,6661,0.000490285,0.0
468,6791,0.000551087,0.0
477,6913,0.000506957,0.0
486,7042,0.000456943,0.0
495,7178,0.000534415,0.0
504,7362,0.000611888,0.000390625
513,7544,0.000606004,0.00205078
522,7726,0.000716819,0.00517578
531,7908,0.00106397,0.00966797
540,8085,0.00189166,0.0154297
549,8269,0.00304001,0.0228516
558,8505,0.00429821,0.0344727
567,8698,0.00550639,0.0458008
576,8884,0.00686951,0.0582031
585,9068,0.00829932,0.0719727
594,9247,0.00953006,0.0867188
603,9433,0.0107716,0.103613
612,9621,0.0122563,0.12207
621,9813,0.0137244,0.141309
630,9997,0.0149659,0.159668
639,10179,0.0164231,0.177832
648,10372,0.0179795,0.197168
657,10559,0.0196289,0.215918
666,10756,0.0213294,0.235547
675,10952,0.0230672,0.255176
684,11148,0.0250873,0.274707
693,11337,0.0271958,0.293652
702,11522,0.0298112,0.312207
711,11712,0.0326757,0.331152
720,11910,0.035855,0.350977
729,12103,0.0395747,0.370215
738,12332,0.0459873,0.393262
747,12529,0.0515996,0.412891
756,12718,0.0577807,0.431738
765,12920,0.0646081,0.451855
774,13142,0.0725662,0.474121
783,13426,0.086324,0.502539
792,13635,0.097533,0.5234375
801,13823,0.109834,0.5421875
810,14017,0.123714,0.561719
819,14214,0.139228,0.581348
828,14513,0.176087,0.61123
837,14707,0.197203,0.630664
846,14914,0.220586,0.651367
855,15107,0.246977,0.670605
864,15297,0.276105,0.689648
873,15494,0.309312,0.709375
882,15686,0.346067,0.728516
891,15880,0.386178,0.747949
900,16080,0.430627,0.767969
909,16270,0.478226,0.786914
918,16471,0.530572,0.807031
927,16670,0.587808,0.826953
936,16913,0.676787,0.85127
945,17108,0.742224,0.870703
954,17306,0.810613,0.890527
963,17501,0.882264,0.910059
972,17745,0.99616,0.934473
981,17940,1.07576,0.953906
990,18133,1.15798,0.973145
999,18335,1.23654,0.993457
1008,18539,1.27716,1.01387
1017,18788,1.36725,1.03867
1026,19012,1.47722,1.06113
1035,19219,1.57708,1.08184
1044,19432,1.68099,1.103125
1053,19690,1.84077,1.12891
1062,19896,1.94604,1.14951
1071,20101,2.04774,1.17002
1080,20303,2.13427,1.19023
1089,20559,2.28396,1.21582
1098,20764,2.39458,1.23633
1107,20964,2.5043,1.25635
1116,21162,2.61758,1.27617
1125,21367,2.78319,1.29658
1134,21625,2.89746,1.32236
1143,21827,3.01155,1.34268
1152,22033,3.18054,1.36328
1161,22237,3.29301,1.38369
1170,22516,3.4687,1.41152
1179,22737,3.58293,1.43369
1188,22944,3.69113,1.4543
1197,23148,3.80097,1.47471
1206,23407,3.95512,1.50068
1215,23615,4.0696,1.52148
1224,23826,4.18141,1.54248
1233,24034,4.33654,1.56328
1242,24299,4.43239,1.58975
1251,24510,4.5739,1.61094
1260,24716,4.67343,1.63154
1269,24936,4.76766,1.65342
1278,25148,4.85926,1.67461
1287,25409,4.93874,1.70078
1296,25617,4.99194,1.72158
1305,25831,5.1501,1.74307
1314,26047,5.26492,1.76455
1323,26297,5.36918,1.78955
1332,26554,5.50581,1.81523
1341,26771,5.60238,1.83701
1350,26982,5.7499,1.85801
1359,27199,5.8424,1.87979
1368,27475,5.95468,1.90742
1377,27689,5.9893,1.92881
1386,27899,5.98012,1.9498
1395,28111,5.97454,1.971
1404,28382,5.92147,1.99805
1413,28596,5.91856,2.01943
1422,28809,5.94493,2.04072
1431,29026,5.93236,2.0625
1440,29247,5.90808,2.08457
1449,29522,6.00327,2.11211
1458,29736,6.12662,2.1334
1467,29951,6.18542,2.15488
1476,30177,6.20959,2.17754
1485,30459,6.21066,2.20576
1494,30673,6.16851,2.22715
1503,30889,6.07076,2.24873
1512,31098,6.05374,2.26963
1521,31369,6.08927,2.29678
1530,31587,6.07517,2.31855
1539,31798,5.976,2.33965
1548,32016,5.82193,2.36143
1557,32233,5.74119,2.38311
1566,32502,5.45428,2.41006
1575,32726,4.84992,2.43242
1584,32952,4.14523,2.45508
1593,33176,3.87911,2.47744
1602,33625,3.81207,2.52227
1611,33852,3.769,2.54502
1620,34074,3.76508,2.56729
1629,34292,3.73185,2.58906
1638,34568,3.55177,2.6166
1647,34826,3.39499,2.64248
1656,35051,3.12599,2.66494
1665,35277,2.70798,2.6875
1674,35501,2.45174,2.70986
1683,35771,2.07557,2.73691
1692,36000,1.77577,2.75977
1701,36227,1.09374,2.78252
1710,36447,0.592355,2.80449
1719,36734,0.324213,2.8333
1728,36959,0.300603,2.85576
1737,37186,0.288086,2.87842
1746,37411,0.28818,2.90088
1755,37702,0.286039,2.92998
1764,37926,0.27164,2.95244
1773,38152,0.267805,2.975
1782,38376,0.264963,2.99736
1791,38644,0.251585,3.02422
1800,38868,0.234521,3.04668
1809,39093,0.22398,3.06904
1818,39321,0.214411,3.09199
1827,39554,0.204973,3.11523
1836,39858,0.203212,3.14561
1845,40083,0.200658,3.16816
1854,40313,0.192705,3.19111
1863,40554,0.186055,3.21523
1872,40835,0.177103,3.24336
1881,41066,0.165066,3.26641
1890,41296,0.161115,3.28945
1899,41528,0.155563,3.3126
1908,41804,0.141518,3.34023
1917,42027,0.133698,3.3625
1926,42254,0.128389,3.38516
1935,42493,0.117119,3.40908
1944,42786,0.111286,3.43838
1953,43057,0.0969916,3.46553
1962,43292,0.080287,3.48896
1971,43524,0.059591,3.51221
1980,43754,0.0373947,3.53525
1989,44054,0.0297671,3.56523
1998,44286,0.0245686,3.58838
2007,44529,0.02049,3.6127
2016,44757,0.0198614,3.63555
2025,45050,0.0195132,3.66465
2034,45290,0.0187356,3.68877
2043,45530,0.0169527,3.71279
2052,45772,0.0170076,3.73691
2061,46004,0.01724,3.76025
2070,46294,0.0177255,3.78916
2079,46531,0.0177863,3.81289
2088,46764,0.0177363,3.83613
2097,47003,0.0150434,3.86006
2106,47293,0.00682048,3.88906
2115,47531,0.00477873,3.91289
2124,47771,0.00471205,3.93691
2133,48006,0.00475029,3.96035
2142,48299,0.00473362,3.98965
2151,48562,0.00477285,4.01602
2160,48799,0.00472872,4.03965
2169,49040,0.0048719,4.06377
2178,49282,0.00509843,4.08799
2187,49578,0.00504842,4.11758
2196,49825,0.0049327,4.14219
2205,50067,0.00480031,4.1665
2214,50313,0.00496604,4.19102
2223,50629,0.00485523,4.22266
2232,50881,0.00498762,4.24785
2241,51127,0.00495525,4.27246
2250,51372,0.00468459,4.29697
2259,51707,0.00490524,4.33037
2268,51953,0.00494937,4.35508
2277,52196,0.00485523,4.37939
2286,52447,0.00482777,4.40439
2295,52689,0.00503175,4.42861
2304,52975,0.0051151,4.45723
2313,53220,0.00503175,4.48174
2322,53460,0.00504842,4.50566
2331,53700,0.00514256,4.52969
2340,53985,0.00520336,4.5582
2349,54237,0.00500429,4.5834
2358,54484,0.00507097,4.6082
2367,54732,0.00541322,4.63291
2376,54978,0.00536321,4.65752
2385,55328,0.00546226,4.69258
2394,55575,0.00566722,4.71729
2403,55826,0.00563878,4.74229
2412,56075,0.00557307,4.76729
2421,56377,0.00559465,4.79746
2430,56621,0.00565545,4.82178
2439,56867,0.00576038,4.84648
2448,57112,0.00575548,4.8709
2457,57356,0.00576626,4.89531
2466,57662,0.00586041,4.92588
2475,57918,0.00576626,4.95146
2484,58170,0.00574959,4.97666
2493,58427,0.00594867,4.99854
2495,58486,0.00608106,5.0