File: tensile_tests/04.06.25_BslA_dry_idx0.csv
,Time,Force (Newtons),Distance (millimeters)
0,59,0.00253597,0.0
9,198,0.00231042,0.0
18,325,0.00208193,0.0
27,447,0.00198288,0.0
36,579,0.00187501,0.0
45,705,0.00171908,0.0
54,840,0.00165436,0.0
63,1004,0.00153079,0.0
72,1278,0.00130524,0.0
81,1400,0.00123463,0.0
90,1522,0.00118167,0.0
99,1646,0.00107969,0.0
108,1764,0.00103654,0.0
117,1885,0.0009826,0.0
126,2010,0.000887475,0.0
135,2132,0.000823732,0.0
144,2253,0.000752144,0.0
153,2377,0.000674671,0.0
162,2502,0.000543262,0.0
171,2627,0.000486383,0.0
180,2751,0.000429505,0.0
189,2873,0.000337322,0.0
198,2998,0.000307902,0.0
207,3123,0.00027456,0.0
216,3243,0.000242198,0.0
225,3369,0.000154919,0.0
234,3500,0.00011275,0.0
243,3632,6.83818e-06,0.0
252,3762,-4.31757e-05,0.0
261,3891,-8.6325e-05,0.0
270,4022,-0.000141242,0.0
279,4144,-0.000168701,0.0
288,4270,-0.000201063,0.0
297,4394,-0.000282458,0.0
306,4525,-0.000321685,0.0
315,4657,-0.000360911,0.0
324,4792,-0.000427596,0.0
333,4920,-0.000466823,0.0
342,5050,-0.000505069,0.0
351,5186,-0.000579599,0.0
360,5317,-0.00061,0.0
369,5440,-0.000660995,0.0
378,5568,-0.000694337,0.0
387,5691,-0.000722777,0.0
396,5817,-0.000800249,0.0
405,5946,-0.000833592,0.0
414,6079,-0.00087576,0.0
423,6209,-0.000947349,0.0
432,6342,-0.000983633,0.0
441,6470,-0.00101501,0.0
450,6599,-0.00106699,0.0
459,6731,-0.00109445,0.0
468,6859,-0.00112779,0.0
477,6988,-0.00121017,0.0
486,7122,-0.00124547,0.0
495,7258,-0.00131216,0.0
504,7517,-0.00137982,0.000878906
513,7704,-0.000758081,0.00332031
522,7881,0.00148666,0.00693359
531,8066,0.00725689,0.0121094
540,8248,0.019781,0.01875
549,8437,0.0419754,0.0270508
558,8630,0.0714581,0.037207
567,8886,0.121586,0.053125
576,9079,0.152855,0.0669922
585,9272,0.174432,0.0824219
594,9546,0.200929,0.107129
603,9733,0.219289,0.125684
612,9924,0.258978,0.144727
621,10111,0.321228,0.163477
630,10350,0.383802,0.187402
639,10542,0.442552,0.206543
648,10729,0.496689,0.225293
657,10911,0.545432,0.243457
666,11099,0.593344,0.262305
675,11346,0.65979,0.287012
684,11531,0.643396,0.305469
693,11719,0.569518,0.324316
702,11905,0.50646,0.342969
711,12135,0.465242,0.36582
720,12329,0.431493,0.385352
729,12518,0.255295,0.404199
738,12766,0.0261749,0.429004
747,12951,0.024648,0.447461
756,13197,0.0246323,0.47207
765,13385,0.0246176,0.490918
774,13568,0.0246137,0.50918
783,13752,0.0246088,0.527637
792,13940,0.0246098,0.546387
801,14180,0.0246245,0.5703125
810,14370,0.0246421,0.589355
819,14562,0.0246568,0.608594
828,14756,0.0246686,0.62793
837,15000,0.0246764,0.652344
846,15190,0.0246912,0.671387
855,15388,0.0246764,0.691113
864,15586,0.0246411,0.7109375
873,15780,0.0246411,0.730371
882,16027,0.0246784,0.755078
891,16223,0.0246921,0.774609
900,16421,0.0246755,0.794434
909,16612,0.0246715,0.813477
918,16857,0.0246931,0.838086
927,17056,0.0246823,0.858008
936,17248,0.0246706,0.877148
945,17444,0.0246706,0.896777
954,17637,0.0246774,0.916016
963,17888,0.0246735,0.941211
972,18085,0.0246666,0.9609375
981,18283,0.0246774,0.980664
990,18487,0.0246735,1.00107
999,18730,0.0246578,1.02529
1008,18940,0.0246588,1.04639
1017,19141,0.0246627,1.0665
1026,19342,0.0246637,1.08652
1035,19544,0.0246578,1.10674
1044,19811,0.0246715,1.1334
1053,20004,0.0246686,1.15273
1062,20216,0.0246578,1.17393
1071,20420,0.0246529,1.19434
1080,20627,0.0246735,1.21514
1089,20878,0.0246814,1.24014
1098,21084,0.0246686,1.26074
1107,21289,0.0246794,1.28125
1116,21490,0.0247078,1.30137
1125,21750,0.0246764,1.32734
1134,21956,0.0246696,1.34795
1143,22155,0.0246774,1.36777
1152,22359,0.0246931,1.38828
1161,22564,0.0246872,1.40879
1170,22820,0.0246755,1.434375
1179,23024,0.0246823,1.45479
1188,23230,0.0246774,1.47539
1197,23441,0.0246549,1.49639
1206,23700,0.0246529,1.52227
1215,23913,0.0246392,1.54365
1224,24124,0.0246313,1.56475
1233,24333,0.02465,1.58564
1242,24542,0.0246529,1.60654
1251,24806,0.0246402,1.63291
1260,25008,0.0246294,1.653125
1269,25217,0.0246117,1.67402
1278,25432,0.0246304,1.69561
1287,25716,0.024646,1.72393
1296,25925,0.0246666,1.74482
1305,26180,0.024648,1.77031
1314,26394,0.0246392,1.7917
1323,26666,0.0246411,1.81895
1332,26876,0.0246382,1.83984
1341,27081,0.0246323,1.86045
1350,27292,0.0246058,1.88154
1359,27502,0.0246245,1.90254
1368,27799,0.0246529,1.93223
1377,28027,0.0246608,1.95508
1386,28239,0.0246598,1.97617
1395,28454,0.0246715,1.99775
1404,28730,0.0246617,2.02539
1413,28946,0.0246451,2.04697
1422,29162,0.0246313,2.06855
1431,29376,0.024648,2.08994
1440,29592,0.0246519,2.11152
1449,29862,0.0246539,2.13848
1458,30078,0.0246598,2.16016
1467,30291,0.0246706,2.18145
1476,30569,0.0246539,2.20918
1485,30865,0.0246559,2.23877
1494,31061,0.0246666,2.2584
1503,31278,0.0246912,2.28018
1512,31510,0.0246804,2.30332
1521,31759,0.0246833,2.32822
1530,32038,0.0247049,2.35605
1539,32260,0.0247216,2.37832
1548,32483,0.0247167,2.40059
1557,32704,0.0247157,2.42266
1566,32980,0.0247294,2.45029
1575,33213,0.0247294,2.47363
1584,33435,0.0247363,2.4958
1593,33666,0.0247186,2.51895
1602,33894,0.0247186,2.5417
1611,34169,0.0247147,2.56914
1620,34393,0.024698,2.5916
1629,34619,0.0246823,2.61426
1638,34842,0.0246823,2.63643
1647,35121,0.0246696,2.66436
1656,35361,0.0246372,2.68838
1665,35584,0.0246333,2.71074
1674,35811,0.0246529,2.7334
1683,36036,0.0246411,2.75596
1692,36317,0.0246098,2.78398
1701,36545,0.0245911,2.80674
1710,36770,0.0245892,2.8292
1719,37004,0.0245813,2.85273
1728,37236,0.024596,2.87588
1737,37524,0.0245852,2.90469
1746,37756,0.0245764,2.92783
1755,37984,0.0245911,2.95068
1764,38253,0.0245686,2.97764
1773,38531,0.024549,3.00537
1782,38784,0.0245254,3.03066
1791,39018,0.0245117,3.054
1800,39254,0.0245303,3.07764
1809,39487,0.0245803,3.10088
1818,39784,0.0245529,3.13066
1827,40022,0.0245441,3.15439
1836,40255,0.0245421,3.17773
1845,40488,0.0245303,3.20107
1854,40773,0.0245519,3.22959
1863,41008,0.0245382,3.253125
1872,41234,0.024549,3.27568
1881,41468,0.0245382,3.29912
1890,41764,0.0245264,3.32861
1899,41995,0.0245078,3.35186
1908,42229,0.0245244,3.3752
1917,42468,0.0245117,3.39902
1926,42706,0.0244931,3.42285
1935,43001,0.0244921,3.45244
1944,43238,0.024497,3.47607
1953,43476,0.0244803,3.4998
1962,43718,0.024444,3.52412
1971,43958,0.0244421,3.54805
1980,44255,0.0244421,3.57773
1989,44498,0.0244146,3.60205
1998,44735,0.0244195,3.62578
2007,44979,0.0244244,3.6501
2016,45274,0.0244058,3.67959
2025,45514,0.0243999,3.70371
2034,45754,0.0244058,3.72764
2043,45988,0.0243695,3.75107
2052,46227,0.0243362,3.7749
2061,46524,0.0243263,3.80469
2070,46766,0.0243313,3.82881
2079,47004,0.0243509,3.85264
2088,47248,0.024345,3.87705
2097,47559,0.0243371,3.9082
2106,47814,0.0243195,3.93359
2115,48057,0.0243195,3.95801
2124,48297,0.0243107,3.98203
2133,48542,0.0243038,4.00645
2142,48834,0.0242606,4.03564
2151,49076,0.0242714,4.05986
2160,49306,0.0242803,4.08291
2169,49549,0.0242528,4.10713
2178,49837,0.0242312,4.13604
2187,50085,0.0242538,4.16074
2196,50377,0.0242381,4.18994
2205,50625,0.0242548,4.21465
2214,50873,0.0242459,4.23945
2223,51181,0.0242116,4.27031
2232,51421,0.0242381,4.29443
2241,51680,0.0242479,4.32021
2250,51928,0.0242469,4.34502
2259,52231,0.0242538,4.37529
2268,52477,0.0242214,4.3999
2277,52721,0.0242175,4.42441
2286,52965,0.0242224,4.44873
2295,53207,0.0242146,4.47295
2304,53510,0.0242381,4.50322
2313,53755,0.0242342,4.52773
2322,54005,0.0242204,4.55273
2331,54260,0.0241998,4.57822
2340,54571,0.0242047,4.60928
2349,54826,0.0242214,4.63486
2358,55074,0.0241861,4.65957
2367,55326,0.0241949,4.68486
2376,55575,0.0242018,4.70977
2385,55890,0.0241959,4.74121
2394,56144,0.0241812,4.7666
2403,56392,0.0241694,4.79141
2412,56646,0.0241724,4.8168
2421,56955,0.0241734,4.84775
2430,57202,0.0241763,4.87246
2439,57459,0.0241753,4.89814
2448,57715,0.0241685,4.92373
2457,57984,0.0241714,4.95059
2466,58297,0.0242038,4.98184
2473,58588,0.0241881,5.0