File: tensile_tests/04.03.25_WT.csv
,Time,Force (Newtons),Distance (millimeters)
0,5,3.65788e-07,0.0
9,398,6.60703e-05,0.0
18,526,3.65788e-07,0.0
27,650,-9.37781e-05,0.0
36,773,-0.000171251,0.0
45,894,-9.9662e-05,0.0
54,1018,4.9399e-05,0.0
63,1143,6.60703e-05,0.0
72,1265,9.3529e-05,0.0
81,1382,2.19404e-05,0.0
90,1505,7.68577e-05,0.0
99,1633,0.000120988,0.0
108,1761,0.000193557,0.0
117,1887,0.00019846,0.0
126,2008,0.000171001,0.0
135,2135,0.000176885,0.0
144,2257,0.000181789,0.0
153,2382,0.000176885,0.0
162,2507,0.000275933,0.0
171,2633,0.000380864,0.0
180,2756,0.000529925,0.0
189,2877,0.000645643,0.0
198,3004,0.000717232,0.0
207,3128,0.000794704,0.0
216,3252,0.00087708,0.0
225,3382,0.000932978,0.0
234,3507,0.000971224,0.0
243,3629,0.00103203,0.0
252,3753,0.00112617,0.0
261,3888,0.00116442,0.0
270,4020,0.00121933,0.0
279,4151,0.00135172,0.0
288,4276,0.00146842,0.0
297,4406,0.00147332,0.0
306,4538,0.00156747,0.0
315,4671,0.00151255,0.0
324,4804,0.00152824,0.0
333,4939,0.00155668,0.0
342,5069,0.00159493,0.0
351,5199,0.00161748,0.0
360,5331,0.00161748,0.0
369,5461,0.00155668,0.0
378,5591,0.00166161,0.0
387,5728,0.00166652,0.0
396,5858,0.00177145,0.0
405,5985,0.00171065,0.0
414,6115,0.00180969,0.0
423,6241,0.0020529,0.0
432,6371,0.00211958,0.0
441,6502,0.00211958,0.0
450,6643,0.00189893,0.0
459,6773,0.00190972,0.0
468,6905,0.00198719,0.0
477,7044,0.00209703,0.0
486,7169,0.00210291,0.0
495,7302,0.00209703,0.0
504,7545,0.0021137,0.00078125
513,7728,0.00230689,0.00283203
522,7909,0.00299139,0.00634766
531,8092,0.00410641,0.0114258
540,8274,0.00590495,0.0177734
549,8451,0.00845468,0.0253906
558,8651,0.0112525,0.0355469
567,8848,0.0141004,0.0473633
576,9042,0.0176219,0.0604492
585,9229,0.0215789,0.0748047
594,9422,0.0266391,0.0911133
603,9615,0.0335695,0.108984
612,9810,0.0427917,0.128418
621,10002,0.0560817,0.147559
630,10193,0.0745692,0.166699
639,10430,0.113891,0.190332
648,10619,0.15048,0.20918
657,10814,0.196507,0.228711
666,11018,0.2527,0.249121
675,11272,0.360598,0.274512
684,11454,0.403805,0.292773
693,11643,0.500362,0.311719
702,11830,0.615037,0.330371
711,12065,0.81766,0.353906
720,12252,0.975901,0.372559
729,12442,1.14414,0.391504
738,12629,1.31765,0.410254
747,12815,1.48917,0.428906
756,13064,1.63462,0.453809
765,13252,1.72006,0.472559
774,13445,1.83826,0.491797
783,13630,2.02456,0.510352
792,13964,2.36633,0.54375
801,14162,2.5243,0.563477
810,14353,2.67471,0.582617
819,14544,2.80935,0.601758
828,14736,2.87367,0.620898
837,14984,3.07891,0.645801
846,15177,3.24481,0.665039
855,15369,3.37314,0.684277
864,15577,3.4949,0.70498
873,15828,3.62018,0.730078
882,16026,3.73471,0.749902
891,16225,3.80264,0.769824
900,16426,3.90486,0.789941
909,16619,4.01153,0.80918
918,16863,4.11942,0.833691
927,17065,4.22248,0.853809
936,17261,4.33628,0.8734375
945,17454,4.5252,0.892676
954,17704,4.65872,0.917676
963,17902,4.78143,0.9375
972,18106,4.8987,0.95791
981,18300,5.02232,0.977344
990,18511,5.20452,0.9984375
999,18767,5.32518,1.02402
1008,18965,5.43943,1.04385
1017,19168,5.53147,1.06406
1026,19366,5.63594,1.08389
1035,19621,5.76736,1.10947
1044,19822,5.90288,1.12949
1053,20031,6.08381,1.15039
1062,20238,6.20939,1.17119
1071,20447,6.33505,1.19209
1080,20700,6.52463,1.21719
1089,20911,6.64576,1.23838
1098,21115,6.76129,1.25879
1107,21359,6.93654,1.2832
1116,21615,7.05155,1.30879
1125,21821,7.17655,1.32939
1134,22032,7.35993,1.35049
1143,22238,7.48643,1.37109
1152,22448,7.60892,1.39209
1161,22716,7.79747,1.41885
1170,22923,7.91952,1.43955
1179,23128,8.03324,1.46006
1188,23334,8.14384,1.48076
1197,23595,8.29042,1.50674
1206,23809,8.3948,1.528125
1215,24020,8.50763,1.54932
1224,24228,8.66567,1.57012
1233,24438,8.77252,1.59102
1242,24700,8.93718,1.61729
1251,24907,9.03589,1.63799
1260,25101,9.12259,1.65732
1269,25309,9.20265,1.67822
1278,25572,9.3214,1.70449
1287,25788,9.4017,1.72607
1296,25994,9.48855,1.74668
1305,26202,9.58415,1.76748
1314,26415,9.71109,1.78877
1323,26690,9.80061,1.81621
1332,26905,9.8705,1.83779
1341,27111,9.96783,1.8584
1350,27325,10.0629,1.87979
1359,27596,10.1926,1.90684
1368,27815,10.2717,1.92881
1377,28032,10.3775,1.95049
1386,28259,10.4416,1.97314
1395,28472,10.4648,1.99443
1404,28744,10.4402,2.02168
1413,28959,10.4025,2.04316
1422,29222,9.98196,2.06943
1431,29445,9.57124,2.0918
1440,29712,7.88441,2.11846
1449,29949,4.41908,2.14219
1458,30165,2.29117,2.16377
1467,30385,1.59938,2.18574
1476,30608,1.2852,2.20801
1485,30882,1.0755,2.23555
1494,31102,0.977722,2.25752
1503,31328,0.904184,2.28008
1512,31543,0.837203,2.30146
1521,31817,0.725242,2.32891
1530,32043,0.668255,2.35156
1539,32269,0.615623,2.37412
1548,32497,0.523077,2.39697
1557,32723,0.461372,2.41963
1566,33022,0.380758,2.44941
1575,33248,0.321353,2.47197
1584,33469,0.225211,2.49414
1593,33696,0.189007,2.5168
1602,33978,0.17207,2.54502
1611,34214,0.161899,2.56865
1620,34436,0.156341,2.59082
1629,34697,0.147467,2.61689
1638,34930,0.147036,2.64023
1647,35215,0.15063,2.66875
1656,35446,0.152434,2.6918
1665,35667,0.152782,2.71387
1674,35899,0.150773,2.73701
1683,36186,0.13377,2.76582
1692,36420,0.102042,2.78926
1701,36651,0.0942766,2.8123
1710,36879,0.0951925,2.83506
1719,37108,0.0946963,2.85801
1728,37434,0.0920034,2.890625
1737,37667,0.0878258,2.91396
1746,37903,0.0837364,2.9375
1755,38129,0.0789625,2.96006
1764,38420,0.0776759,2.98926
1773,38649,0.0775053,3.01211
1782,38878,0.0758499,3.03496
1791,39111,0.0755567,3.0583
1800,39343,0.0759823,3.08154
1809,39632,0.0747349,3.11035
1818,39860,0.0636141,3.1332
1827,40095,0.0598121,3.15664
1836,40334,0.0589011,3.18057
1845,40614,0.059768,3.20859
1854,40852,0.0620912,3.23242
1863,41087,0.0659766,3.25586
1872,41321,0.0678967,3.2793
1881,41553,0.0683939,3.30254
1890,41828,0.0697404,3.32998
1899,42066,0.0712967,3.35381
1908,42309,0.0733659,3.37813
1917,42542,0.0751987,3.40146
1926,42836,0.0788017,3.43086
1935,43072,0.0819643,3.45439
1944,43308,0.0835756,3.47803
1953,43545,0.0807395,3.50166
1962,43792,0.0772738,3.52627
1971,44073,0.0703641,3.55449
1980,44398,0.0406283,3.58701
1989,44641,0.0143269,3.61133
1998,44894,0.00929903,3.63662
2007,45196,0.00908917,3.6668
2016,45436,0.00895678,3.69072
2025,45672,0.00881949,3.71436
2034,45952,0.00874201,3.74238
2043,46212,0.0089352,3.76826
2052,46504,0.00875868,3.79756
2061,46752,0.00878026,3.82246
2070,46992,0.00922744,3.84639
2079,47231,0.00944809,3.87021
2088,47535,0.00949811,3.90059
2097,47779,0.00974033,3.925
2106,48021,0.00965795,3.94932
2115,48277,0.00979623,3.9749
2124,48527,0.00994529,3.9999
2133,48823,0.00991195,4.02949
2142,49081,0.00948732,4.05527
2151,49333,0.00932159,4.08037
2160,49587,0.00942063,4.10586
2169,49891,0.00915585,4.13623
2178,50144,0.00915585,4.16152
2187,50389,0.00899012,4.18604
2196,50637,0.00892442,4.21094
2205,50892,0.00904504,4.23633
2214,51256,0.00904504,4.27275
2223,51505,0.00885185,4.29766
2232,51757,0.0088136,4.32285
2241,52007,0.00879693,4.34785
2250,52314,0.00890186,4.37852
2259,52562,0.00895678,4.40342
2268,52813,0.00882439,4.42842
2277,53063,0.0088744,4.45342
2286,53313,0.00886362,4.47842
2295,53618,0.00864787,4.50898
2304,53870,0.00889107,4.53408
2313,54131,0.00885185,4.56016
2322,54385,0.00877536,4.58564
2331,54687,0.00913918,4.61582
2340,54976,0.00894011,4.64414
2349,55226,0.00898424,4.66963
2358,55474,0.00908427,4.69453
2367,55792,0.00904504,4.72559
2376,56044,0.00896855,4.75156
2385,56307,0.00913918,4.77783
2394,56577,0.00938239,4.8043
2403,56897,0.00907838,4.83682
2412,57201,0.00939318,4.86719
2421,57464,0.00980113,4.89346
2430,57727,0.00986193,4.91982
2439,57991,0.0097521,4.94619
2448,58309,0.00980702,4.97803
2457,58567,0.00992862,4.99902
2459,58625,0.00995019,5.0