File: tensile_tests/04.03.25_WT_idx1_already_stressed.csv
,Time,Force (Newtons),Distance (millimeters)
0,3,0.000101611,0.0
8,118,0.000140837,0.0
16,235,9.08233e-05,0.0
24,351,-1.41078e-05,0.0
32,463,-0.000113155,0.0
40,572,-9.15804e-05,0.0
48,689,-0.000113155,0.0
56,803,-0.000190628,0.0
64,917,-0.000196512,0.0
72,1027,-0.000213183,0.0
80,1135,-0.00022397,0.0
88,1250,-0.0002681,0.0
96,1365,-0.000251429,0.0
104,1477,-0.000218086,0.0
112,1590,-0.000157285,0.0
120,1702,-0.000245545,0.0
128,1809,-0.000339689,0.0
136,2012,-0.000433832,0.0
144,2119,-0.000450504,0.0
152,2230,-0.000422064,0.0
160,2352,-0.000157285,0.0
168,2465,-7.49091e-05,0.0
176,2583,-1.99918e-05,0.0
184,2689,-4.74505e-05,0.0
192,2799,-7.49091e-05,0.0
200,2907,-7.49091e-05,0.0
208,3013,-0.000108252,0.0
216,3125,-0.000173956,0.0
224,3232,-0.00017984,0.0
232,3345,-0.000184744,0.0
240,3456,-0.000240641,0.0
248,3563,-0.000190628,0.0
256,3680,1.33508e-05,0.0
264,3794,9.08233e-05,0.0
272,3902,0.000101611,0.0
280,4013,7.4152e-05,0.0
288,4121,6.8268e-05,0.0
296,4230,0.000113379,0.0
304,4342,0.000179083,0.0
312,4455,5.74807e-05,0.0
320,4575,3.59061e-05,0.0
328,4686,-7.98124e-05,0.0
336,4802,-0.000129826,0.0
344,4915,-6.90251e-05,0.0
352,5023,4.08094e-05,0.0
360,5127,0.000118282,0.0
368,5237,0.000162412,0.0
376,5353,7.4152e-05,0.0
384,5471,1.33508e-05,0.0
392,5591,5.25774e-05,0.0
400,5712,0.000124166,0.0
408,5821,0.00018987,0.0
416,5925,0.000184967,0.0
424,6033,0.000107495,0.0
432,6142,0.000124166,0.0
440,6260,0.000338932,0.0
448,6376,0.000372274,0.0
456,6491,0.000305589,0.0
464,6606,0.000201638,0.0
472,6721,0.000223213,0.0
480,6834,0.000571349,0.0
488,6955,0.000703739,0.0
496,7074,0.000691971,0.0
504,7240,0.000609595,0.000390625
512,7459,0.000990093,0.00244141
520,7627,0.00278961,0.00556641
528,7797,0.00826467,0.00986328
536,7957,0.0129493,0.0150391
544,8117,0.0277456,0.0212891
552,8280,0.0497321,0.02890625
560,8442,0.0770171,0.0375977
568,8604,0.0928951,0.0473633
576,8771,0.13342,0.05859375
584,8937,0.184916,0.0709961
592,9100,0.215507,0.0842773
600,9267,0.290761,0.0991211
608,9429,0.389967,0.114648
616,9650,0.509571,0.136816
624,9816,0.656416,0.153418
632,10008,0.829259,0.172559
640,10176,1.01631,0.189355
648,10340,1.20143,0.205762
656,10552,1.29289,0.226953
664,10723,1.34592,0.244043
672,10895,1.39256,0.261328
680,11059,1.51504,0.277734
688,11224,1.70578,0.294141
696,11453,1.93392,0.31709
704,11625,2.14404,0.334277
712,11796,2.34318,0.351367
720,11961,2.54732,0.367969
728,12183,2.74627,0.390039
736,12360,2.94892,0.407812
744,12540,3.15811,0.425781
752,12720,3.36107,0.443848
760,12892,3.45598,0.461035
768,13150,3.74271,0.486816
776,13340,3.93036,0.505762
784,13538,4.11834,0.525586
792,13815,4.36333,0.55332
800,13990,4.51998,0.570801
808,14164,4.66422,0.588184
816,14334,4.73265,0.605273
824,14500,4.87434,0.621777
832,14712,5.00404,0.642969
840,14897,5.12822,0.661523
848,15078,5.2453,0.6796875
856,15263,5.35253,0.698145
864,15490,5.50828,0.720801
872,15678,5.6085,0.739551
880,15863,5.69847,0.758105
888,16045,5.73768,0.77627
896,16234,5.81658,0.795117
904,16493,5.95644,0.821094
912,16670,6.03431,0.838867
920,16879,6.10646,0.859766
928,17054,6.17302,0.877246
936,17296,6.28523,0.901465
944,17575,6.40736,0.929199
952,17767,6.47845,0.948535
960,17959,6.55282,0.967676
968,18135,6.58508,0.985254
976,18322,6.66229,1.004
984,18562,6.77501,1.02803
992,18748,6.84595,1.04658
1000,18934,6.91173,1.06523
1008,19123,6.95999,1.08418
1016,19371,7.02423,1.10889
1024,19549,7.10152,1.12666
1032,19736,7.16465,1.14541
1040,19916,7.22219,1.16338
1048,20100,7.28086,1.18184
1056,20331,7.35135,1.20488
1064,20513,7.42215,1.22314
1072,20692,7.47146,1.24102
1080,20875,7.48998,1.25928
1088,21060,7.52693,1.27783
1096,21292,7.64447,1.30098
1104,21473,7.68881,1.31904
1112,21662,7.75967,1.33799
1120,21844,7.827,1.35615
1128,22076,7.92374,1.37939
1136,22260,7.97631,1.39775
1144,22441,8.03327,1.41582
1152,22621,8.09635,1.43379
1160,22850,8.16253,1.45674
1168,23086,8.22534,1.48037
1176,23275,8.28385,1.49932
1184,23466,8.34454,1.51836
1192,23650,8.39355,1.53672
1200,23886,8.44359,1.56035
1208,24073,8.47586,1.5791
1216,24265,8.50094,1.59824
1224,24451,8.53743,1.6168
1232,24644,8.59456,1.63623
1240,24884,8.65531,1.66025
1248,25078,8.71196,1.6792
1256,25262,8.74908,1.69805
1264,25486,8.82336,1.72041
1272,25681,8.8815,1.73984
1280,25929,8.92485,1.76465
1288,26129,8.9545,1.78467
1296,26329,8.98338,1.80459
1304,26528,9.03931,1.82422
1312,26728,9.08901,1.84424
1320,26970,9.14847,1.86875
1328,27161,9.19146,1.88789
1336,27356,9.2346,1.90732
1344,27550,9.27759,1.92676
1352,27751,9.31271,1.94688
1360,28003,8.98321,1.97207
1368,28202,8.1764,1.99189
1376,28402,7.14558,2.01201
1384,28602,4.98816,2.03193
1392,28853,2.55474,2.05703
1400,29052,1.7147,2.07695
1408,29251,1.21497,2.096875
1416,29453,0.955347,2.11709
1424,29652,0.828144,2.13691
1432,29904,0.700428,2.16211
1440,30103,0.565487,2.18203
1448,30303,0.442308,2.20205
1456,30508,0.359078,2.22256
1464,30706,0.311716,2.24229
1472,30961,0.279734,2.26787
1480,31157,0.269558,2.2874
1488,31360,0.259884,2.30771
1496,31556,0.242405,2.32734
1504,31803,0.209464,2.35205
1512,32013,0.192973,2.37305
1520,32214,0.179717,2.39316
1528,32414,0.172041,2.41318
1536,32616,0.161008,2.4333
1544,32882,0.153735,2.45996
1552,33082,0.148513,2.47998
1560,33284,0.127498,2.5001
1568,33482,0.112747,2.51992
1576,33711,0.100462,2.54277
1584,33982,0.0871945,2.56992
1592,34185,0.084275,2.59033
1600,34390,0.0843849,2.61064
1608,34590,0.0816253,2.63066
1616,34793,0.0750195,2.65098
1624,35056,0.063027,2.67734
1632,35258,0.0549757,2.69756
1640,35458,0.051361,2.71758
1648,35665,0.0510511,2.73828
1656,35921,0.0501577,2.76377
1664,36132,0.0481983,2.78496
1672,36334,0.0456653,2.80518
1680,36540,0.0442247,2.82568
1688,36745,0.0414768,2.84629
1696,36996,0.0274749,2.87139
1704,37216,0.0174643,2.89326
1712,37421,0.0127728,2.91387
1720,37642,0.011189,2.93594
1728,37861,0.00493629,2.95781
1736,38139,-0.000306346,2.98564
1744,38347,-0.000610352,3.00645
1752,38569,-0.000543667,3.02861
1760,38772,-0.0021549,3.04883
1768,38990,-0.00703371,3.0708
1776,39246,-0.0131864,3.09639
1784,39448,-0.0137326,3.1165
1792,39667,-0.0136552,3.13848
1800,39889,-0.0139925,3.16064
1808,40160,-0.0141357,3.18779
1816,40370,-0.0141357,3.20869
1824,40586,-0.0141798,3.23037
1832,40794,-0.0140974,3.25117
1840,41017,-0.0142239,3.27344
1848,41287,-0.0143897,3.30039
1856,41496,-0.0143622,3.32139
1864,41717,-0.0142132,3.34346
1872,41951,-0.0141023,3.3668
1880,42263,-0.0142573,3.39805
1888,42493,-0.0143122,3.421
1896,42792,-0.0141739,3.45088
1904,43039,-0.0142024,3.47559
1912,43270,-0.0142465,3.49873
1920,43546,-0.014423,3.52637
1928,43797,-0.0143289,3.55137
1936,44042,-0.0145995,3.57588
1944,44268,-0.0146603,3.59854
1952,44501,-0.0145113,3.62178
1960,44797,-0.014781,3.65146
1968,45039,-0.0148035,3.67559
1976,45266,-0.0147653,3.69824
1984,45495,-0.0150301,3.72119
1992,45739,-0.0148859,3.74561
2000,46039,-0.0152007,3.77559
2008,46273,-0.0151566,3.79902
2016,46524,-0.0152115,3.82412
2024,46874,-0.015388,3.85918
2032,47170,-0.0153223,3.88867
2040,47441,-0.0153772,3.91416
2048,47792,-0.0153331,3.95088
2056,48043,-0.0155488,3.97607
2064,48291,-0.0157028,3.99922
2072,48574,-0.0160509,4.0291
2080,48824,-0.015996,4.0541
2088,49101,-0.0162167,4.08184
2096,49370,-0.0163216,4.10869
2104,49642,-0.0162931,4.13594
2112,49942,-0.0167129,4.16592
2120,50203,-0.0168119,4.19199
2128,50467,-0.0171659,4.21846
2136,50697,-0.0171659,4.24141
2144,51003,-0.0178995,4.27207
2152,51253,-0.0179103,4.29697
2160,51492,-0.0182309,4.3209
2168,51751,-0.0184349,4.34678
2176,52017,-0.0187664,4.37334
2184,52341,-0.0190361,4.4042
2192,52595,-0.0193234,4.43115
2200,52848,-0.0194058,4.45654
2208,53148,-0.0196598,4.48652
2216,53403,-0.0200736,4.51201
2224,53721,-0.0201011,4.54375
2232,53992,-0.020411,4.5709
2240,54248,-0.0207307,4.59648
2248,54521,-0.021018,4.62383
2256,54842,-0.0214593,4.65586
2264,55122,-0.0217682,4.68379
2272,55369,-0.021928,4.70859
2280,55642,-0.0221105,4.73584
2288,55899,-0.0224086,4.76152
2296,56242,-0.0223586,4.7959
2304,56500,-0.0224468,4.82168
2312,56770,-0.0227557,4.84873
2320,57018,-0.0227449,4.87344
2328,57270,-0.0229166,4.89873
2336,57592,-0.0228773,4.93086
2344,57849,-0.0231647,4.95664
2352,58118,-0.0230764,4.9835
2360,58391,-0.0234187,5.0