File: tensile_tests/04.03.25_BslA_idx0_slipped.csv
,Time,Force (Newtons),Distance (millimeters)
0,22,0.016971,0.0
9,162,0.0160442,0.0
18,287,0.014433,0.0
27,412,0.0137593,0.0
36,534,0.0131581,0.0
45,663,0.0122579,0.0
54,792,0.0118548,0.0
63,916,0.0113586,0.0
72,1042,0.0103319,0.0
81,1167,0.00989056,0.0
90,1295,0.00955419,0.0
99,1466,0.00908445,0.0
108,1590,0.00879809,0.0
117,1718,0.00847742,0.0
126,1855,0.00829599,0.0
135,1987,0.00789294,0.0
144,2119,0.0076007,0.0
153,2252,0.00736338,0.0
162,2379,0.00678871,0.0
171,2515,0.00655728,0.0
180,2642,0.00617089,0.0
189,2778,0.00602183,0.0
198,2916,0.00580707,0.0
207,3044,0.00552562,0.0
216,3175,0.00532066,0.0
225,3307,0.00478521,0.0
234,3440,0.00464204,0.0
243,3566,0.00455966,0.0
252,3695,0.00433901,0.0
261,3832,0.00416739,0.0
270,3963,0.00392517,0.0
279,4096,0.00362116,0.0
288,4227,0.00349956,0.0
297,4359,0.00331225,0.0
306,4494,0.00312495,0.0
315,4625,0.00282683,0.0
324,4764,0.00251203,0.0
333,4894,0.0023463,0.0
342,5026,0.001905,0.0
351,5159,0.00160688,0.0
360,5294,0.00144703,0.0
369,5428,0.00136367,0.0
378,5551,0.00127541,0.0
387,5679,0.00121461,0.0
396,5806,0.00101063,0.0
405,5940,0.000878244,0.0
414,6065,0.000685053,0.0
423,6195,0.000315343,0.0
432,6326,0.000122152,0.0
441,6460,-0.000280902,0.0
450,6593,-0.000357394,0.0
459,6726,-0.000335819,0.0
468,6852,-0.000534894,0.0
477,6976,-0.000644728,0.0
486,7104,-0.000804577,0.0
495,7226,-0.0010978,0.0
504,7416,-0.00141161,0.000390625
513,7610,0.000216295,0.00234375
522,7881,0.01159,0.00771484
531,8101,0.0309611,0.0144531
540,8325,0.0675507,0.0233398
549,8587,0.154776,0.0366211
558,8784,0.226581,0.0485352
567,9015,0.320423,0.0645508
576,9199,0.431191,0.0791016
585,9387,0.564399,0.0953125
594,9570,0.730802,0.112695
603,9753,0.921907,0.130859
612,9944,1.10467,0.150098
621,10137,1.16686,0.169336
630,10319,1.20253,0.187598
639,10564,1.36577,0.212012
648,10756,1.52626,0.231152
657,10943,1.72229,0.25
666,11153,1.90504,0.270898
675,11396,2.06769,0.295215
684,11587,2.29642,0.314355
693,11782,2.4304,0.333789
702,11971,2.55323,0.352637
711,12168,2.67425,0.372363
720,12401,2.7909,0.395703
729,12588,2.90441,0.414355
738,12774,3.00804,0.433008
747,12967,3.10829,0.452344
756,13205,3.20952,0.476074
765,13403,3.343,0.495898
774,13603,3.42226,0.51582
783,13797,3.4804,0.535254
792,13992,3.5481,0.554785
801,14244,3.62397,0.57998
810,14448,3.7137,0.600293
819,14642,3.76605,0.619727
828,14841,3.8043,0.639746
837,15045,3.84376,0.660059
846,15304,3.91,0.6859375
855,15507,3.94367,0.706348
864,15722,3.9658,0.727734
873,15921,3.98124,0.747656
882,16214,4.0081,0.776953
891,16418,4.02611,0.797363
900,16621,4.03627,0.817676
909,16817,4.03938,0.837305
918,17020,4.02933,0.857617
927,17282,3.99691,0.883789
936,17488,3.98124,0.904395
945,17689,3.98047,0.924512
954,17890,3.98022,0.944629
963,18153,3.98332,0.970801
972,18360,3.98938,0.991504
981,18568,3.99171,1.0123
990,18768,3.98588,1.03232
999,18968,3.9784,1.05234
1008,19222,3.96553,1.07773
1017,19419,3.97046,1.09736
1026,19621,3.97655,1.11768
1035,19820,3.96172,1.1375
1044,20084,3.93922,1.16396
1053,20290,3.92713,1.18457
1062,20491,3.91043,1.20459
1071,20704,3.89378,1.22588
1080,20909,3.87336,1.24639
1089,21160,3.83968,1.27158
1098,21368,3.80955,1.29238
1107,21576,3.78509,1.31318
1116,21778,3.74051,1.3334
1125,22038,3.70255,1.35928
1134,22251,3.65722,1.38057
1143,22466,3.61403,1.40215
1152,22680,3.56276,1.42354
1161,22945,3.46591,1.45
1170,23152,3.4057,1.4707
1179,23366,3.33883,1.49209
1188,23636,3.23432,1.51914
1197,23851,3.14908,1.540625
1206,24122,3.01733,1.56768
1215,24333,2.91973,1.58887
1224,24544,2.76368,1.60986
1233,24758,2.6682,1.63135
1242,25021,2.53737,1.65762
1251,25240,2.4464,1.67949
1260,25453,2.3493,1.70078
1269,25669,2.24697,1.72236
1278,25879,2.09087,1.74346
1287,26152,1.97986,1.7707
1296,26369,1.92142,1.79238
1305,26595,1.87927,1.81494
1314,26809,1.84291,1.83643
1323,27082,1.7784,1.86377
1332,27292,1.72044,1.88477
1341,27514,1.63632,1.90693
1350,27726,1.5861,1.928125
1359,27944,1.53824,1.9499
1368,28222,1.47204,1.97773
1377,28437,1.42354,1.99922
1386,28654,1.39927,2.0209
1395,28871,1.37145,2.04268
1404,29212,1.28506,2.07676
1413,29427,1.25085,2.09814
1422,29645,1.22102,2.11992
1431,29870,1.16649,2.14248
1440,30094,1.12638,2.16484
1449,30365,1.04465,2.19199
1458,30588,0.996604,2.21426
1467,30810,0.961588,2.23643
1476,31031,0.927277,2.25859
1485,31311,0.896272,2.28662
1494,31543,0.878458,2.30977
1503,31806,0.849191,2.33604
1512,32029,0.825885,2.3584
1521,32252,0.785582,2.38066
1530,32532,0.747314,2.40859
1539,32755,0.726265,2.43096
1548,32977,0.706839,2.45322
1557,33204,0.674516,2.47588
1566,33483,0.637042,2.50371
1575,33710,0.610331,2.52646
1584,33942,0.578797,2.54961
1593,34178,0.509199,2.57324
1602,34404,0.445694,2.5958
1611,34678,0.366328,2.62324
1620,34905,0.322697,2.6459
1629,35140,0.253915,2.66943
1638,35372,0.209263,2.69268
1647,35662,0.177867,2.72158
1656,35890,0.15764,2.74443
1665,36129,0.136338,2.76836
1674,36355,0.106525,2.79092
1683,36587,0.0935393,2.81416
1692,36875,0.0818998,2.84297
1701,37105,0.0710772,2.86592
1710,37334,0.0621423,2.88887
1719,37573,0.0514972,2.9127
1728,37863,0.0414748,2.9418
1737,38103,0.0358733,2.96582
1746,38336,0.0260166,2.98896
1755,38569,0.0187205,3.0123
1764,38802,0.0130091,3.03564
1773,39093,0.00832345,3.06475
1782,39406,-0.0002201,3.096
1791,39641,-0.0051754,3.11953
1800,39878,-0.0135758,3.14326
1809,40208,-0.0212573,3.17627
1818,40447,-0.0268863,3.2001
1827,40688,-0.0307335,3.22432
1836,40924,-0.0364459,3.24785
1845,41222,-0.0400439,3.27764
1854,41455,-0.0420749,3.30098
1863,41688,-0.044856,3.32422
1872,41924,-0.0463241,3.34785
1881,42157,-0.0479304,3.37109
1890,42455,-0.0493857,3.40088
1899,42689,-0.0506498,3.42432
1908,42930,-0.0523934,3.44834
1917,43171,-0.0534094,3.47256
1926,43468,-0.054243,3.50225
1935,43707,-0.0543695,3.52607
1944,43948,-0.054292,3.5502
1953,44191,-0.0544744,3.57451
1962,44432,-0.0543361,3.59863
1971,44745,-0.0540164,3.62988
1980,44982,-0.0539223,3.65371
1989,45227,-0.0538841,3.67812
1998,45477,-0.0537791,3.703125
2007,45775,-0.0538566,3.73281
2016,46022,-0.0541214,3.75762
2025,46268,-0.0543087,3.78223
2034,46510,-0.0541704,3.80645
2043,46757,-0.0539331,3.83115
2052,47049,-0.0537075,3.86035
2061,47292,-0.0532496,3.88457
2070,47543,-0.0533486,3.90967
2079,47791,-0.0539615,3.93457
2088,48091,-0.053834,3.96445
2097,48342,-0.0536134,3.98955
2106,48594,-0.0536742,4.01484
2115,48874,-0.0540057,4.04277
2124,49188,-0.0538174,4.07422
2133,49430,-0.0535859,4.09834
2142,49678,-0.053431,4.12314
2151,49930,-0.0533104,4.14834
2160,50186,-0.0533153,4.17402
2169,50490,-0.0533986,4.20439
2178,50742,-0.0535751,4.22959
2187,50991,-0.053481,4.25449
2196,51244,-0.0533594,4.27979
2205,51549,-0.0534751,4.31035
2214,51801,-0.0533427,4.33545
2223,52050,-0.0533594,4.36045
2232,52302,-0.0538174,4.38555
2241,52629,-0.0538782,4.41826
2250,52883,-0.0538782,4.44365
2259,53132,-0.0538448,4.46855
2268,53388,-0.0540547,4.49414
2277,53650,-0.0541547,4.52041
2286,53959,-0.0540821,4.55127
2295,54215,-0.0540213,4.57686
2304,54466,-0.0545401,4.60195
2313,54718,-0.0543146,4.62715
2322,55032,-0.0542645,4.65859
2331,55290,-0.0540606,4.68428
2340,55540,-0.0541763,4.709375
2349,55787,-0.0543195,4.73408
2358,56104,-0.0542812,4.76572
2367,56355,-0.0544028,4.79082
2376,56610,-0.053989,4.81631
2385,56878,-0.0538615,4.84307
2394,57136,-0.0541988,4.86895
2403,57447,-0.0539772,4.9001
2412,57706,-0.0539772,4.92588
2421,57975,-0.0538566,4.95283
2430,58267,-0.0538448,4.98203
2438,58563,-0.0538174,5.0