File: tensile_tests/04.06.25_WT_dry_idx0.csv
,Time,Force (Newtons),Distance (millimeters)
0,1,-0.000428076,0.0
9,154,-0.00043396,0.0
18,281,-0.000460438,0.0
27,404,-0.00047809,0.0
36,526,-0.000486916,0.0
45,652,-0.000482013,0.0
54,777,-0.000483974,0.0
63,910,-0.000480051,0.0
72,1038,-0.00047809,0.0
81,1160,-0.000470245,0.0
90,1281,-0.000471225,0.0
99,1512,-0.000506529,0.0
108,1636,-0.000513394,0.0
117,1752,-0.000516336,0.0
126,1873,-0.0005232,0.0
135,1987,-0.000532026,0.0
144,2104,-0.000533007,0.0
153,2225,-0.000529084,0.0
162,2351,-0.000530065,0.0
171,2471,-0.00055262,0.0
180,2591,-0.000557524,0.0
189,2714,-0.000557524,0.0
198,2840,-0.000554582,0.0
207,2963,-0.000562427,0.0
216,3081,-0.000569292,0.0
225,3201,-0.000573214,0.0
234,3322,-0.000583021,0.0
243,3441,-0.000576156,0.0
252,3560,-0.000565369,0.0
261,3679,-0.000556543,0.0
270,3799,-0.000571253,0.0
279,3927,-0.000580079,0.0
288,4056,-0.000584982,0.0
297,4175,-0.000577137,0.0
306,4292,-0.000577137,0.0
315,4409,-0.000575176,0.0
324,4525,-0.00058106,0.0
333,4641,-0.000587924,0.0
342,4754,-0.000608518,0.0
351,4867,-0.000602634,0.0
360,4984,-0.000600673,0.0
369,5108,-0.000599692,0.0
378,5231,-0.000613422,0.0
387,5363,-0.000618325,0.0
396,5495,-0.000623228,0.0
405,5619,-0.000638919,0.0
414,5740,-0.000634016,0.0
423,5866,-0.00062519,0.0
432,5985,-0.000605576,0.0
441,6109,-0.000597731,0.0
450,6236,-0.000597731,0.0
459,6357,-0.000600673,0.0
468,6477,-0.000620286,0.0
477,6600,-0.000634016,0.0
486,6726,-0.000632054,0.0
495,6852,-0.000631074,0.0
504,7217,-0.000577137,0.00214844
513,7391,-0.00040454,0.005078125
522,7592,0.00367699,0.01015625
531,7781,0.00754277,0.0165039
540,8021,0.0457573,0.0267578
549,8226,0.0969108,0.0375
558,8413,0.147357,0.0488281
567,8651,0.228242,0.0655273
576,8838,0.277214,0.0803711
585,9046,0.307257,0.0985352
594,9239,0.302436,0.1171875
603,9421,0.297868,0.135352
612,9666,0.333205,0.159961
621,9848,0.38079,0.178027
630,10039,0.423677,0.197168
639,10219,0.468016,0.215234
648,10459,0.529767,0.23916
657,10642,0.565842,0.25752
666,10824,0.602693,0.275684
675,11014,0.641533,0.294727
684,11205,0.693063,0.31377
693,11451,0.750064,0.338379
702,11640,0.800142,0.357227
711,11829,0.845808,0.376172
720,12010,0.887643,0.394336
729,12258,0.949974,0.419141
738,12449,0.988213,0.438184
747,12636,1.02353,0.456836
756,12823,1.05625,0.475586
765,13066,1.0878,0.499902
774,13249,1.12132,0.518164
783,13513,1.16671,0.544531
792,13699,1.19339,0.563184
801,13950,1.2158,0.588281
810,14145,1.23842,0.607715
819,14331,1.26886,0.626367
828,14525,1.29912,0.645703
837,14718,1.32784,0.665137
846,14957,1.37342,0.688965
855,15150,1.40362,0.708203
864,15341,1.43651,0.727344
873,15532,1.46875,0.746484
882,15716,1.50078,0.764844
891,15911,1.53146,0.784375
900,16115,1.56333,0.804785
909,16386,1.61481,0.831836
918,16566,1.64849,0.849805
927,16757,1.68175,0.868945
936,16944,1.71442,0.887695
945,17140,1.74943,0.907324
954,17328,1.78669,0.926074
963,17518,1.8212,0.94502
972,17779,1.874,0.971191
981,17971,1.90984,0.99043
990,18167,1.94633,1.00986
999,18366,1.9845,1.02988
1008,18563,2.02179,1.04951
1017,18822,2.07715,1.07539
1026,19027,2.11062,1.0959
1035,19219,2.13521,1.11514
1044,19414,2.16695,1.13467
1053,19608,2.21193,1.1541
1062,19806,2.25615,1.17383
1071,20055,2.31954,1.19873
1080,20255,2.3664,1.21875
1089,20456,2.40951,1.23877
1098,20660,2.45087,1.25928
1107,20856,2.49566,1.27881
1116,21054,2.54142,1.29863
1125,21256,2.58873,1.31875
1134,21513,2.66073,1.34453
1143,21714,2.70701,1.36465
1152,21920,2.75457,1.38525
1161,22120,2.80402,1.40518
1170,22318,2.85619,1.425
1179,22525,2.93153,1.4457
1188,22732,2.98262,1.46641
1197,22939,3.03206,1.48711
1206,23142,3.0825,1.50742
1215,23348,3.13657,1.52793
1224,23557,3.20982,1.54883
1233,23767,3.25842,1.56992
1242,23981,3.30664,1.59131
1251,24192,3.3599,1.6124
1260,24393,3.41729,1.63252
1269,24602,3.49663,1.65342
1278,24815,3.55037,1.67471
1287,25025,3.60211,1.6957
1296,25230,3.65446,1.71621
1305,25435,3.70545,1.73672
1314,25622,3.73734,1.75537
1323,25803,2.71213,1.77354
1332,25981,1.00854,1.79131
1341,26182,0.307941,1.81143
1350,26370,0.259265,1.83027
1359,26606,0.218221,1.85381
1368,26795,0.202665,1.87275
1377,26987,0.193713,1.89189
1386,27192,0.185479,1.9124
1395,27470,0.17423,1.94023
1404,27693,0.167933,1.9625
1413,27917,0.160883,1.98496
1422,28142,0.150748,2.00742
1431,28422,0.140937,2.03545
1440,28647,0.134505,2.05791
1449,28911,0.125091,2.08428
1458,29130,0.119374,2.10615
1467,29407,0.112714,2.13389
1476,29628,0.109061,2.15596
1485,29850,0.104347,2.17822
1494,30068,0.102551,2.2
1503,30291,0.101641,2.22227
1512,30553,0.10102,2.24844
1521,30772,0.100843,2.27041
1530,30996,0.100678,2.29277
1539,31214,0.100616,2.31465
1548,31495,0.100584,2.34268
1557,31718,0.100566,2.36494
1566,31944,0.100456,2.3876
1575,32166,0.100407,2.40986
1584,32397,0.100376,2.43281
1593,32667,0.100367,2.45986
1602,32898,0.100371,2.48291
1611,33190,0.100372,2.51211
1620,33418,0.10033,2.53496
1629,33688,0.100276,2.56191
1638,33919,0.100263,2.58506
1647,34146,0.100239,2.60771
1656,34372,0.100244,2.63037
1665,34690,0.100278,2.66211
1674,34913,0.100264,2.68447
1683,35138,0.100252,2.70693
1692,35364,0.100207,2.72959
1701,35643,0.100172,2.75752
1710,35876,0.100189,2.78076
1719,36106,0.100168,2.80381
1728,36330,0.100126,2.82617
1737,36554,0.100124,2.84854
1746,36832,0.100155,2.87637
1755,37064,0.100175,2.89951
1764,37297,0.100176,2.92285
1773,37528,0.100188,2.946
1782,37815,0.100171,2.97461
1791,38048,0.100167,2.99795
1800,38282,0.100155,3.02139
1809,38514,0.100155,3.04453
1818,38793,0.100164,3.07246
1827,39029,0.100163,3.096
1836,39265,0.100192,3.11963
1845,39545,0.100171,3.14756
1854,39827,0.100118,3.17578
1863,40079,0.100166,3.20107
1872,40308,0.100194,3.22393
1881,40539,0.10019,3.24707
1890,40779,0.100199,3.271
1899,41073,0.100238,3.30039
1908,41306,0.100274,3.32373
1917,41543,0.100273,3.34746
1926,41778,0.100265,3.371
1935,42071,0.10026,3.40029
1944,42308,0.100257,3.42393
1953,42552,0.100265,3.44824
1962,42791,0.100278,3.47227
1971,43094,0.100282,3.50254
1980,43346,0.100251,3.52764
1989,43584,0.100231,3.55156
1998,43830,0.100268,3.57617
2007,44068,0.100259,3.5999
2016,44374,0.100306,3.63047
2025,44617,0.100313,3.65479
2034,44860,0.10032,3.6791
2043,45104,0.100327,3.70352
2052,45400,0.100309,3.73311
2061,45649,0.100322,3.75791
2070,45896,0.100348,3.78271
2079,46151,0.100363,3.8082
2088,46447,0.100352,3.83779
2097,46690,0.10034,3.86211
2106,46933,0.100398,3.88643
2115,47169,0.1004,3.90996
2124,47458,0.100394,3.93896
2133,47699,0.100412,3.96299
2142,47943,0.100417,3.9875
2151,48187,0.100422,4.01182
2160,48437,0.100427,4.03672
2169,48775,0.100456,4.07061
2178,49028,0.100444,4.0959
2187,49294,0.100352,4.12246
2196,49630,0.100335,4.15615
2205,49883,0.100391,4.18135
2214,50147,0.100437,4.20771
2223,50433,0.100446,4.23633
2232,50700,0.100469,4.26299
2241,50995,0.10047,4.29258
2250,51241,0.10046,4.31719
2259,51496,0.100465,4.34268
2268,51795,0.100484,4.37256
2277,52048,0.100493,4.39795
2286,52310,0.100509,4.42402
2295,52563,0.100514,4.44932
2304,52814,0.100514,4.47451
2313,53140,0.100526,4.50703
2322,53399,0.100517,4.53301
2331,53661,0.100526,4.55918
2340,53924,0.100544,4.58545
2349,54307,0.100579,4.62373
2358,54537,0.100566,4.64678
2367,54770,0.100558,4.67012
2376,55017,0.100555,4.69473
2385,55318,0.100553,4.7248
2394,55551,0.100564,4.74814
2403,55797,0.100571,4.77275
2412,56216,0.100615,4.81465
2421,56604,0.100591,4.85342
2430,56860,0.100607,4.8791
2439,57151,0.100623,4.90811
2448,57406,0.100648,4.93369
2457,57665,0.100627,4.95957
2466,57927,0.100637,4.98574
2475,58179,0.100668,5.0