File: tensile_tests/04.06.25_WT_dry_idx2.csv
,Time,Force (Newtons),Distance (millimeters)
0,1,0.0523488,0.0
9,132,0.0498265,0.0
18,267,0.0487458,0.0
27,397,0.0468453,0.0
36,525,0.045995,0.0
45,657,0.0452174,0.0
54,791,0.0437797,0.0
63,928,0.0431305,0.0
72,1058,0.0424941,0.0
81,1199,0.0413016,0.0
90,1364,0.0401562,0.0
99,1492,0.0396237,0.0
108,1623,0.0391019,0.0
117,1751,0.0381193,0.0
126,1880,0.037626,0.0
135,2011,0.0371749,0.0
144,2141,0.0363149,0.0
153,2264,0.035905,0.0
162,2386,0.0354745,0.0
171,2513,0.0346291,0.0
180,2635,0.0342398,0.0
189,2764,0.0338613,0.0
198,2885,0.0330954,0.0
207,3010,0.0327188,0.0
216,3142,0.032351,0.0
225,3265,0.0316862,0.0
234,3475,0.0310448,0.0
243,3598,0.0307173,0.0
252,3718,0.0304329,0.0
261,3837,0.0298092,0.0
270,3960,0.0295091,0.0
279,4091,0.0291786,0.0
288,4218,0.0286,0.0
297,4342,0.0283097,0.0
306,4465,0.0280283,0.0
315,4588,0.0274497,0.0
324,4715,0.0271604,0.0
333,4849,0.0268848,0.0
342,4981,0.0263543,0.0
351,5106,0.0260915,0.0
360,5230,0.0258375,0.0
369,5359,0.0253324,0.0
378,5493,0.0250892,0.0
387,5614,0.0248401,0.0
396,5738,0.0243576,0.0
405,5864,0.0241174,0.0
414,5998,0.023881,0.0
423,6128,0.0234496,0.0
432,6251,0.0232318,0.0
441,6372,0.02302,0.0
450,6491,0.0225611,0.0
459,6625,0.0223522,0.0
468,6749,0.0221306,0.0
477,6882,0.0216932,0.0
486,7019,0.0214735,0.0
495,7151,0.0210744,0.0
504,7326,0.0208724,0.000390625
513,7528,0.0225199,0.00224609
522,7767,0.0288677,0.00673828
531,7948,0.0433718,0.0118164
540,8129,0.0713482,0.0182617
549,8313,0.115101,0.0262695
558,8550,0.168455,0.0387695
567,8738,0.196111,0.0503906
576,8920,0.205802,0.0630859
585,9104,0.257157,0.0774414
594,9348,0.389975,0.0985352
603,9540,0.476453,0.11709
612,9732,0.563187,0.13623
621,9916,0.656162,0.1546875
630,10096,0.748039,0.172656
639,10328,0.833474,0.195898
648,10512,0.914223,0.214355
657,10695,0.988071,0.232617
666,10883,1.055,0.251465
675,11122,1.11866,0.275293
684,11312,1.17638,0.294336
693,11568,1.25117,0.319922
702,11755,1.29095,0.338574
711,11942,1.32936,0.357227
720,12179,1.36478,0.381055
729,12364,1.39407,0.399414
738,12560,1.42397,0.419043
747,12751,1.45269,0.438281
756,12985,1.49167,0.461621
765,13177,1.51769,0.480762
774,13366,1.54665,0.499707
783,13559,1.57843,0.518945
792,13849,1.6192,0.547949
801,14035,1.64691,0.566602
810,14227,1.6744,0.585742
819,14419,1.7029,0.60498
828,14613,1.73308,0.624316
837,14861,1.77021,0.649219
846,15049,1.7946,0.667969
855,15239,1.81623,0.686914
864,15434,1.8386,0.706543
873,15689,1.86272,0.732031
882,15885,1.88593,0.751562
891,16081,1.9105,0.771191
900,16277,1.93415,0.790723
909,16474,1.97299,0.810547
918,16720,1.99977,0.835059
927,16919,2.02459,0.85498
936,17122,2.04871,0.875293
945,17326,2.08159,0.895605
954,17583,2.09855,0.921387
963,17782,2.08795,0.941309
972,17983,2.09116,0.961328
981,18191,2.14285,0.982227
990,18455,2.17372,1.00859
999,18662,2.21891,1.0293
1008,18857,2.24531,1.04883
1017,19062,2.27006,1.06924
1026,19267,2.29245,1.08975
1035,19520,2.33453,1.11504
1044,19729,2.36339,1.13604
1053,19933,2.39214,1.15635
1062,20147,2.42375,1.17773
1071,20404,2.47009,1.20342
1080,20614,2.50681,1.22441
1089,20823,2.53938,1.24541
1098,21028,2.56961,1.26582
1107,21223,2.60231,1.28535
1116,21490,2.65285,1.31211
1125,21706,2.71052,1.33359
1134,21912,2.7463,1.3542
1143,22117,2.78202,1.37471
1152,22380,2.83144,1.40107
1161,22646,2.87055,1.42764
1170,22854,2.92927,1.44844
1179,23115,2.97027,1.47451
1188,23324,3.02673,1.49541
1197,23601,3.06761,1.52314
1206,23807,3.12607,1.54375
1215,24018,3.16228,1.56484
1224,24231,3.19881,1.58613
1233,24493,3.26146,1.6124
1242,24705,3.3065,1.6335
1251,24917,3.34393,1.65479
1260,25138,3.37336,1.67686
1269,25409,3.42147,1.704
1278,25620,3.47039,1.7251
1287,25835,3.51538,1.74658
1296,26050,3.55826,1.76807
1305,26264,3.60041,1.78945
1314,26541,3.65806,1.81719
1323,26762,3.63592,1.83926
1332,26988,3.64241,1.86182
1341,27209,3.70397,1.88389
1350,27495,3.78924,1.9125
1359,27713,3.87226,1.93438
1368,27936,3.91894,1.95664
1377,28151,3.6941,1.978125
1386,28369,2.66546,2.0
1395,28651,2.74259,2.028125
1404,28865,2.88586,2.04961
1413,29081,3.01399,2.07119
1422,29308,3.13003,2.09385
1431,29618,3.34514,2.1248
1440,29838,3.43059,2.146875
1449,30067,3.07984,2.16973
1458,30292,2.39639,2.19219
1467,30518,2.51436,2.21484
1476,30801,2.7256,2.24307
1485,31024,2.90991,2.26543
1494,31251,3.01647,2.28809
1503,31472,3.07008,2.31025
1512,31751,3.15107,2.33809
1521,31976,3.31399,2.36064
1530,32198,3.41627,2.38281
1539,32423,3.5144,2.40527
1548,32705,3.65512,2.4335
1557,32933,3.75079,2.45625
1566,33207,3.25356,2.48369
1575,33436,2.57767,2.50654
1584,33669,2.71637,2.52998
1593,33952,2.87878,2.5582
1602,34186,3.0692,2.58154
1611,34418,3.19406,2.60479
1620,34646,3.37391,2.62754
1629,34922,3.53644,2.65527
1638,35153,3.63981,2.67832
1647,35388,3.73707,2.70186
1656,35624,3.87629,2.72539
1665,35853,3.95818,2.74834
1674,36139,4.06841,2.77695
1683,36377,4.14694,2.80068
1692,36605,3.48694,2.82344
1701,36835,2.25563,2.84648
1710,37121,2.47289,2.8752
1719,37355,2.61684,2.89854
1728,37587,2.81476,2.92178
1737,37819,2.93545,2.94492
1746,38067,3.07858,2.96973
1755,38368,2.92906,2.99971
1764,38605,2.62806,3.02354
1773,38835,2.6461,3.04658
1782,39073,2.80081,3.07031
1791,39361,3.00528,3.09912
1800,39685,2.99232,3.13145
1809,40055,2.61928,3.16855
1818,40282,2.74971,3.19131
1827,40569,2.54637,3.21885
1836,40794,2.63118,3.24248
1845,41016,2.84285,3.26465
1854,41288,2.93544,3.2918
1863,41526,3.04503,3.315625
1872,41838,3.22069,3.34678
1881,42084,3.38918,3.37139
1890,42327,3.49462,3.3957
1899,42570,3.64851,3.41992
1908,42869,3.78557,3.4498
1917,43115,3.90459,3.47441
1926,43364,3.9751,3.49941
1935,43611,4.07212,3.52402
1944,43855,4.12361,3.54844
1953,44154,4.18342,3.57832
1962,44438,4.07189,3.60674
1971,44691,3.35491,3.63203
1980,44931,2.7836,3.65615
1989,45238,2.99126,3.68682
1998,45486,3.15822,3.71152
2007,45723,3.25709,3.73535
2016,45970,3.38312,3.75996
2025,46267,3.48841,3.78965
2034,46522,3.54664,3.81514
2043,46767,3.62151,3.83965
2052,47012,3.6696,3.86416
2061,47261,3.68728,3.88906
2070,47568,3.69604,3.91973
2079,47812,3.68223,3.94414
2088,48062,3.64093,3.96914
2097,48370,3.57374,3.9999
2106,48625,3.51494,4.02549
2115,48881,3.47503,4.05107
2124,49132,3.41457,4.07617
2133,49374,3.37757,4.10039
2142,49625,3.3262,4.12539
2151,49919,3.26469,4.15488
2160,50172,3.20217,4.18018
2169,50412,3.16473,4.2042
2178,50671,3.11384,4.23008
2187,50923,3.065,4.25527
2196,51174,3.03704,4.28037
2205,51436,2.99552,4.30654
2214,51686,2.96384,4.33154
2223,51926,2.93955,4.35557
2232,52183,2.89033,4.38125
2241,52433,2.83857,4.40625
2250,52679,2.81336,4.43076
2259,52929,2.77683,4.45586
2268,53175,2.75481,4.48047
2277,53473,2.70902,4.51016
2286,53728,2.68934,4.53574
2295,53978,2.66021,4.56074
2304,54228,2.64444,4.58574
2313,54484,2.61862,4.61143
2322,54739,2.59535,4.63682
2331,55005,2.57626,4.66338
2340,55268,2.56648,4.68975
2349,55525,2.55365,4.71543
2358,55788,2.53609,4.7417
2367,56039,2.52073,4.76689
2376,56292,2.50058,4.79209
2385,56548,2.47556,4.81768
2394,56804,2.44686,4.84326
2403,57055,2.4265,4.86846
2412,57376,2.39061,4.90059
2421,57622,2.37634,4.9251
2430,57868,2.34394,4.94971
2439,58130,2.32399,4.97598
2448,58386,2.30062,4.99814
2451,58471,2.29401,5.0