File: tensile_tests/04.03.25_BslA_idx2_slipped.csv
,Time,Force (Newtons),Distance (millimeters)
0,2,-0.000157342,0.0
7,107,4.17332e-05,0.0
14,208,0.000262383,0.0
21,307,0.000283957,0.0
28,405,0.000355546,0.0
35,508,0.000311416,0.0
42,612,0.00027317,0.0
49,714,0.000372217,0.0
56,817,0.000460477,0.0
63,918,0.000587964,0.0
70,1023,0.000636997,0.0
77,1121,0.000664455,0.0
84,1225,0.000703682,0.0
91,1324,0.000725257,0.0
98,1426,0.000753696,0.0
105,1525,0.000737025,0.0
112,1630,0.000709566,0.0
119,1731,0.000697798,0.0
126,1837,0.000697798,0.0
133,1937,0.000620326,0.0
140,2040,0.000576196,0.0
147,2144,0.000609538,0.0
154,2251,0.00062621,0.0
161,2347,0.000709566,0.0
168,2437,0.000725257,0.0
175,2528,0.000587964,0.0
182,2617,0.00049382,0.0
189,2719,0.00053795,0.0
196,2820,0.000642881,0.0
203,2917,0.000797826,0.0
210,3024,0.00086353,0.0
217,3125,0.000825285,0.0
224,3229,0.000753696,0.0
231,3332,0.000681127,0.0
238,3428,0.000636997,0.0
245,3579,0.000648765,0.0
252,3678,0.000747812,0.0
259,3775,0.000769387,0.0
266,3878,0.000813517,0.0
273,3974,0.000880202,0.0
280,4070,0.00095179,0.0
287,4171,0.00106751,0.0
294,4374,0.00114498,0.0
301,4470,0.00123913,0.0
308,4573,0.00136073,0.0
315,4673,0.00138819,0.0
322,4773,0.00133817,0.0
329,4867,0.00122834,0.0
336,4960,0.00123324,0.0
343,5058,0.00127247,0.0
350,5154,0.0012607,0.0
357,5241,0.0013215,0.0
364,5341,0.00122245,0.0
371,5438,0.00118911,0.0
378,5537,0.00111164,0.0
385,5629,0.00101848,0.0
392,5727,0.00110085,0.0
399,5830,0.00122834,0.0
406,5929,0.00135484,0.0
413,6034,0.00143232,0.0
420,6130,0.00153725,0.0
427,6226,0.00160295,0.0
434,6320,0.00161962,0.0
441,6416,0.00161962,0.0
448,6519,0.00153136,0.0
455,6622,0.00141564,0.0
462,6722,0.00133817,0.0
469,6815,0.00133817,0.0
476,6917,0.00140486,0.0
483,7021,0.00143232,0.0
490,7123,0.00149802,0.0
497,7228,0.00148723,0.0
504,7377,0.00145389,0.000390625
511,7522,0.00151469,0.0015625
518,7714,0.00168042,0.00449219
525,7861,0.0017579,0.0078125
532,8003,0.00217664,0.0119141
539,8151,0.00271797,0.0170898
546,8320,0.00383298,0.02421875
553,8504,0.00451749,0.0333008
560,8689,0.00500292,0.0439453
567,8838,0.00524514,0.0536133
574,8974,0.00641508,0.0632813
581,9115,0.00744772,0.0741211
588,9263,0.0127286,0.0864258
595,9406,0.019401,0.0991211
602,9552,0.0498252,0.113086
609,9738,0.106896,0.131738
616,9884,0.145693,0.146387
623,10034,0.233337,0.161328
630,10177,0.280313,0.175586
637,10328,0.370712,0.190723
644,10508,0.457887,0.208301
651,10687,0.540812,0.22666
658,10848,0.615757,0.242676
665,11020,0.64913,0.259863
672,11176,0.713314,0.275488
679,11454,0.796339,0.30332
686,11604,0.822917,0.318262
693,11747,0.8672,0.332617
700,11895,0.905379,0.347363
707,12039,0.92278,0.361816
714,12185,0.951583,0.376367
721,12386,0.977863,0.396484
728,12530,0.990225,0.41084
735,12678,1.012,0.425684
742,12828,1.02087,0.440625
749,12978,1.0354,0.455762
756,13123,1.04399,0.470215
763,13268,1.05526,0.484766
770,13487,1.06647,0.506543
777,13639,1.07744,0.521777
784,13791,1.07886,0.536914
791,13937,1.07948,0.55166
798,14089,1.07711,0.566797
805,14237,1.07312,0.581543
812,14436,1.0698,0.601465
819,14585,1.07052,0.616309
826,14733,1.06905,0.631152
833,14886,1.06919,0.646484
840,15033,1.06969,0.661133
847,15268,1.07545,0.684668
854,15426,1.07626,0.700488
861,15574,1.07682,0.715332
868,15727,1.07312,0.730566
875,15884,1.07227,0.746289
882,16037,1.07289,0.761621
889,16237,1.07908,0.781543
896,16387,1.08555,0.796484
903,16539,1.08738,0.811719
910,16691,1.08971,0.826953
917,16913,1.09044,0.849219
924,17077,1.09045,0.865527
931,17277,1.08639,0.885547
938,17427,1.07968,0.900488
945,17578,1.07669,0.915527
952,17730,1.06731,0.930859
959,17886,1.06438,0.946387
966,18039,1.0602,0.961816
973,18248,1.06087,0.982715
980,18402,1.0637,0.998047
987,18555,1.06459,1.01338
994,18709,1.06485,1.02871
1001,18864,1.06295,1.04424
1008,19070,1.06028,1.06484
1015,19226,1.05439,1.08047
1022,19399,1.05223,1.09775
1029,19558,1.04787,1.11367
1036,19712,1.0408,1.129
1043,19873,1.03743,1.14521
1050,20081,1.02533,1.16592
1057,20243,1.00864,1.18213
1064,20401,0.991279,1.19795
1071,20557,0.982962,1.21357
1078,20713,0.969358,1.2291
1085,20873,0.95475,1.24512
1092,21089,0.928879,1.2667
1099,21248,0.8915,1.28262
1106,21409,0.874269,1.29873
1113,21563,0.845886,1.31406
1120,21721,0.823364,1.32988
1127,21881,0.814258,1.3459
1134,22096,0.785709,1.36748
1141,22251,0.775157,1.38301
1148,22417,0.757911,1.39961
1155,22574,0.74338,1.41523
1162,22772,0.723259,1.43506
1169,22932,0.71019,1.45107
1176,23154,0.649108,1.47324
1183,23313,0.625553,1.48916
1190,23477,0.590404,1.50547
1197,23632,0.561585,1.521
1204,23789,0.545884,1.53672
1211,23960,0.522622,1.55381
1218,24203,0.491694,1.578125
1225,24362,0.475022,1.59395
1232,24522,0.436302,1.60996
1239,24681,0.393918,1.62598
1246,24837,0.372201,1.6416
1253,25064,0.324375,1.66416
1260,25223,0.315639,1.68008
1267,25389,0.302763,1.69668
1274,25554,0.292118,1.71318
1281,25715,0.279298,1.7293
1288,25877,0.272245,1.74551
1295,26106,0.25326,1.76836
1302,26294,0.241262,1.78721
1309,26456,0.234921,1.80352
1316,26621,0.213823,1.81992
1323,26783,0.184192,1.83613
1330,26947,0.162668,1.85254
1337,27172,0.15343,1.875
1344,27334,0.147867,1.89121
1351,27499,0.145637,1.90771
1358,27665,0.143469,1.92432
1365,27827,0.142089,1.94053
1372,28043,0.140991,1.96211
1379,28206,0.140395,1.97842
1386,28372,0.141471,1.99502
1393,28538,0.142205,2.01162
1400,28705,0.142658,2.02822
1407,28872,0.141636,2.04502
1414,29124,0.141068,2.07021
1421,29293,0.140367,2.08711
1428,29461,0.137796,2.104
1435,29626,0.134423,2.12041
1442,29798,0.131073,2.1376
1449,29985,0.126316,2.15625
1456,30214,0.119804,2.1793
1463,30391,0.113712,2.196875
1470,30588,0.109992,2.2165
1477,30753,0.106289,2.23311
1484,30920,0.10338,2.24971
1491,31091,0.0973698,2.26689
1498,31321,0.0910896,2.28994
1505,31493,0.0871875,2.30713
1512,31663,0.0782145,2.32402
1519,31840,0.0702564,2.3418
1526,32015,0.0621325,2.359375
1533,32233,0.0529986,2.38105
1540,32406,0.0447924,2.39834
1547,32582,0.0365195,2.41592
1554,32756,0.0257097,2.4334
1561,32928,0.0203896,2.45059
1568,33101,0.0127894,2.46787
1575,33322,0.00910308,2.48994
1582,33494,0.00872748,2.50713
1589,33661,0.00823127,2.52383
1596,33833,0.00819302,2.54111
1603,34011,0.00829207,2.55889
1610,34183,0.00834208,2.57607
1617,34407,0.00857842,2.59844
1624,34583,0.00858431,2.61602
1631,34758,0.00849605,2.63359
1638,34932,0.00847937,2.65098
1645,35107,0.00850193,2.66846
1652,35279,0.00859509,2.68564
1659,35525,0.00843524,2.71035
1666,35701,0.0083362,2.72783
1673,35878,0.00844113,2.74561
1680,36049,0.00866766,2.7627
1687,36205,0.00868335,2.77832
1694,36366,0.00874415,2.79434
1701,36598,0.00884909,2.81758
1708,36773,0.0087775,2.83506
1715,36952,0.00863922,2.85293
1722,37130,0.00863432,2.8708
1729,37312,0.00870002,2.88887
1736,37566,0.00875592,2.91436
1743,37743,0.00870591,2.93213
1750,37921,0.00859509,2.9499
1757,38106,0.00847937,2.96836
1764,38283,0.00839111,2.98604
1771,38467,0.008397,3.00449
1778,38759,0.00843034,3.03369
1785,38933,0.00843034,3.05098
1792,39159,0.00835777,3.07363
1799,39345,0.00809888,3.09229
1806,39525,0.00814301,3.11025
1813,39761,0.00831364,3.13379
1818,39906,0.00836366,3.14834