File: tensile_tests/04.03.25_WT_idx0_slipped.csv
,Time,Force (Newtons),Distance (millimeters)
0,1,-0.000141508,0.0
9,209,-3.06929e-05,0.0
18,345,4.08957e-05,0.0
27,478,0.000140924,0.0
36,614,0.000300772,0.0
45,743,0.000294888,0.0
54,878,0.00013504,0.0
63,1013,2.42244e-05,0.0
72,1134,-3.65768e-05,0.0
81,1263,7.42383e-05,0.0
90,1428,0.000156614,0.0
99,1565,0.000189957,0.0
108,1696,9.58129e-05,0.0
117,1832,6.83543e-05,0.0
126,1966,0.000140924,0.0
135,2101,0.000179169,0.0
144,2238,0.000185053,0.0
153,2360,0.000256642,0.0
162,2478,0.000393935,0.0
171,2595,0.000477292,0.0
180,2714,0.00037236,0.0
189,2832,0.000300772,0.0
198,2961,0.000317443,0.0
207,3091,0.000466504,0.0
216,3226,0.000582223,0.0
225,3361,0.000643024,0.0
234,3497,0.000631256,0.0
243,3621,0.000576339,0.0
252,3741,0.000538093,0.0
261,3873,0.000542996,0.0
270,3998,0.000493963,0.0
279,4123,0.000498866,0.0
288,4247,0.000355689,0.0
297,4374,0.000195841,0.0
306,4503,0.000118368,0.0
315,4623,0.000212512,0.0
324,4826,0.000344902,0.0
333,4950,0.000389032,0.0
342,5079,0.000554764,0.0
351,5212,0.000670483,0.0
360,5337,0.000807776,0.0
369,5459,0.00110099,0.0
378,5583,0.00119416,0.0
387,5704,0.00121083,0.0
396,5828,0.00150405,0.0
405,5955,0.00161977,0.0
414,6085,0.00165801,0.0
423,6211,0.00145403,0.0
432,6338,0.00132655,0.0
441,6456,0.00136577,0.0
450,6577,0.00148149,0.0
459,6702,0.00145403,0.0
468,6830,0.0013491,0.0
477,6956,0.0012883,0.0
486,7083,0.00137068,0.0
495,7206,0.00144815,0.0
504,7384,0.0012883,0.000390625
513,7559,0.00119416,0.001953125
522,7801,0.00131576,0.00634766
531,7985,0.00154818,0.0113281
540,8164,0.00206107,0.0176758
549,8334,0.00290542,0.0249023
558,8510,0.00394296,0.0337891
567,8689,0.00474318,0.044043
576,8861,0.00552674,0.0552734
585,9035,0.00592979,0.06796875
594,9217,0.0068624,0.0826172
603,9398,0.007745,0.0986328
612,9578,0.00872763,0.115918
621,9779,0.00953864,0.136035
630,10071,0.0105438,0.165234
639,10263,0.0113715,0.184375
648,10465,0.0122649,0.20459
657,10688,0.013325,0.226855
666,10877,0.0139595,0.245801
675,11079,0.0145773,0.266016
684,11267,0.0151627,0.284766
693,11457,0.0160846,0.303809
702,11649,0.0168289,0.323047
711,11843,0.0175085,0.342383
720,12038,0.0183195,0.361914
729,12233,0.0190972,0.381445
738,12419,0.0199857,0.4
747,12602,0.0210516,0.418359
756,12796,0.0223922,0.437695
765,13025,0.0235347,0.460645
774,13212,0.0246105,0.479297
783,13396,0.0261452,0.497754
792,13591,0.027983,0.5171875
801,13798,0.0295442,0.537891
810,13989,0.0312819,0.557031
819,14175,0.0333845,0.575586
828,14364,0.0354047,0.594434
837,14555,0.037872,0.613574
846,14748,0.0405375,0.63291
855,14941,0.0431362,0.652148
864,15132,0.0459625,0.671289
873,15322,0.0490634,0.690332
882,15559,0.0551013,0.713965
891,15766,0.0592848,0.734668
900,15959,0.0639861,0.754004
909,16159,0.0692847,0.773926
918,16356,0.0748146,0.793652
927,16566,0.0813988,0.814648
936,16775,0.092193,0.835645
945,17152,0.108418,0.873242
954,17362,0.118121,0.894336
963,17575,0.129269,0.915625
972,17924,0.153656,0.950488
981,18123,0.16806,0.97041
990,18314,0.183304,0.989551
999,18507,0.200185,1.00879
1008,18719,0.217928,1.02998
1017,19006,0.245296,1.05859
1026,19247,0.275621,1.08271
1035,19443,0.298023,1.10234
1044,19646,0.322708,1.12266
1053,19864,0.347897,1.14443
1062,20063,0.374161,1.16436
1071,20259,0.40149,1.18398
1080,20510,0.447053,1.20908
1089,20705,0.479481,1.22852
1098,20897,0.513422,1.24775
1107,21101,0.549405,1.26816
1116,21298,0.585784,1.28789
1125,21496,0.623947,1.30771
1134,21701,0.665062,1.328125
1143,21897,0.707364,1.34785
1152,22100,0.774037,1.36807
1161,22301,0.819804,1.38818
1170,22498,0.867282,1.40791
1179,22765,0.941902,1.43457
1188,22969,0.991975,1.45498
1197,23163,1.04377,1.47441
1206,23367,1.09748,1.49473
1215,23573,1.15357,1.51543
1224,23776,1.20894,1.53564
1233,24029,1.29375,1.56094
1242,24230,1.35077,1.58105
1251,24429,1.41047,1.60098
1260,24625,1.47248,1.62061
1269,24842,1.53239,1.64229
1278,25053,1.62375,1.66328
1287,25256,1.68369,1.68369
1296,25464,1.74411,1.70439
1305,25675,1.80563,1.72559
1314,25952,1.86574,1.75332
1323,26161,1.858,1.77412
1332,26364,1.90755,1.79443
1341,26569,2.03661,1.81494
1350,26782,2.09645,1.83623
1359,26986,2.1557,1.85664
1368,27193,2.21521,1.87734
1377,27400,2.27378,1.89805
1386,27607,2.3342,1.91875
1395,27818,2.42031,1.93984
1404,28044,2.47729,1.9624
1413,28260,2.53343,1.98408
1422,28527,2.61909,2.01074
1431,28738,2.67474,2.03184
1440,28944,2.75831,2.05244
1449,29154,2.81465,2.07344
1458,29367,2.86897,2.09473
1467,29573,2.9244,2.11533
1476,29786,2.97624,2.13662
1485,30000,3.05217,2.15801
1494,30217,3.10135,2.17979
1503,30428,3.15263,2.20088
1512,30656,3.22542,2.22363
1521,30892,3.27328,2.24717
1530,31180,3.34501,2.27607
1539,31476,3.41488,2.30557
1548,31690,3.46563,2.32705
1557,31917,3.53403,2.34971
1566,32137,3.58397,2.37178
1575,32355,3.62234,2.39346
1584,32572,3.64779,2.41523
1593,32784,3.68778,2.43643
1602,33010,3.73806,2.45898
1611,33222,3.78765,2.48027
1620,33436,3.85447,2.50166
1629,33651,3.89921,2.52314
1638,33865,3.9381,2.54453
1647,34083,3.99473,2.56631
1656,34293,4.03257,2.5873
1665,34504,4.07105,2.6085
1674,34733,4.1067,2.63125
1683,35009,4.15052,2.65889
1692,35223,4.17812,2.68037
1701,35444,4.20893,2.70244
1710,35655,4.23617,2.72354
1719,35880,4.25506,2.746
1728,36099,4.28645,2.76797
1737,36324,4.29515,2.79043
1746,36542,4.17668,2.81221
1755,36762,4.18442,2.83428
1764,36983,4.28321,2.85635
1773,37206,4.33317,2.87861
1782,37423,4.37592,2.90029
1791,37650,4.40379,2.92305
1800,37873,4.4227,2.94531
1809,38099,4.44947,2.96797
1818,38323,4.46041,2.99023
1827,38544,4.47692,3.0124
1836,38837,4.50081,3.0417
1845,39060,4.5039,3.06406
1854,39289,4.50258,3.08691
1863,39509,4.5113,3.10898
1872,39736,4.49853,3.13164
1881,39962,4.47299,3.1542
1890,40185,4.39788,3.17656
1899,40415,4.31058,3.19961
1908,40636,4.20024,3.22158
1917,40865,3.98202,3.24443
1926,41086,3.81252,3.2666
1935,41314,3.61417,3.28936
1944,41535,3.23777,3.31152
1953,41769,2.97416,3.33486
1962,41994,2.67364,3.35742
1971,42224,2.51845,3.38037
1980,42493,2.34202,3.40732
1989,42737,2.21995,3.43164
1998,43022,2.01825,3.46016
2007,43250,1.85552,3.48291
2016,43476,1.76768,3.50566
2025,43708,1.65084,3.52881
2034,43942,1.5604,3.55225
2043,44191,1.42174,3.57705
2052,44431,1.34806,3.60117
2061,44666,1.27771,3.62461
2070,44892,1.22982,3.64727
2079,45140,1.14541,3.67197
2088,45391,1.11402,3.69717
2097,45622,1.06531,3.72012
2106,45854,1.03903,3.74336
2115,46093,1.01349,3.76729
2124,46329,0.987289,3.79082
2133,46575,0.926571,3.81553
2142,46804,0.882768,3.83848
2151,47043,0.835924,3.8623
2160,47349,0.789953,3.89287
2169,47578,0.763745,3.91572
2178,47820,0.720063,3.93994
2187,48047,0.691768,3.9627
2196,48282,0.651315,3.98623
2205,48526,0.613787,4.01055
2214,48765,0.553384,4.03447
2223,48998,0.517241,4.05781
2232,49248,0.476219,4.08281
2241,49491,0.450049,4.10713
2250,49737,0.407907,4.13174
2259,49977,0.374381,4.15576
2268,50219,0.338536,4.17988
2277,50464,0.278585,4.20439
2286,50696,0.236102,4.22754
2295,50937,0.191063,4.25166
2304,51169,0.181096,4.2749
2313,51413,0.168921,4.29922
2322,51647,0.162051,4.32266
2331,51888,0.153778,4.34678
2340,52182,0.146846,4.37627
2349,52427,0.135394,4.40059
2358,52670,0.101426,4.425
2367,52913,0.087171,4.44922
2376,53222,0.0693288,4.48018
2385,53474,0.0602508,4.50537
2394,53721,0.0438815,4.53008
2403,53965,0.0317125,4.55449
2412,54211,0.0211007,4.5791
2421,54461,0.0115147,4.604
2430,54702,0.00511878,4.628125
2439,54954,0.00306036,4.65342
2448,55193,0.00386549,4.67725
2457,55441,0.00528941,4.70205
2466,55764,0.00564834,4.734375
2475,56011,0.00533354,4.75908
2484,56259,0.00482066,4.78389
2493,56507,0.00464414,4.80859
2502,56757,0.00457745,4.83369
2511,57056,0.00439505,4.86357
2520,57311,0.00442349,4.88906
2529,57556,0.00444506,4.91357
2538,57804,0.0044176,4.93838
2547,58049,0.00414694,4.96289
2556,58317,0.00402534,4.98965
2563,58514,0.00413615,5.0