File: tensile_tests/04.06.25_WT_dry_idx1.csv
,Time,Force (Newtons),Distance (millimeters)
0,1,-0.0308313,0.0
9,120,-0.0307156,0.0
18,241,-0.0305116,0.0
27,361,-0.0304234,0.0
36,484,-0.0303429,0.0
45,602,-0.0302576,0.0
54,723,-0.0300978,0.0
63,843,-0.0300233,0.0
72,959,-0.0299615,0.0
81,1081,-0.0298938,0.0
90,1203,-0.0297761,0.0
99,1325,-0.0297153,0.0
108,1451,-0.0296594,0.0
117,1580,-0.0295359,0.0
126,1703,-0.0294809,0.0
135,1909,-0.0293937,0.0
144,2031,-0.0293554,0.0
153,2159,-0.0292524,0.0
162,2281,-0.0291995,0.0
171,2409,-0.0291475,0.0
180,2527,-0.0290691,0.0
189,2660,-0.0290249,0.0
198,2786,-0.0289828,0.0
207,2905,-0.0289043,0.0
216,3029,-0.028867,0.0
225,3153,-0.0288268,0.0
234,3271,-0.0287876,0.0
243,3395,-0.0287043,0.0
252,3518,-0.0286719,0.0
261,3647,-0.0286297,0.0
270,3771,-0.0285542,0.0
279,3897,-0.0285081,0.0
288,4032,-0.0284689,0.0
297,4167,-0.0283963,0.0
306,4290,-0.0283659,0.0
315,4415,-0.0283061,0.0
324,4548,-0.0282669,0.0
333,4678,-0.0282306,0.0
342,4800,-0.0281521,0.0
351,4932,-0.02811,0.0
360,5065,-0.0280756,0.0
369,5198,-0.0280198,0.0
378,5331,-0.0280021,0.0
387,5465,-0.0279403,0.0
396,5596,-0.027905,0.0
405,5722,-0.0278648,0.0
414,5858,-0.0278187,0.0
423,5989,-0.0277922,0.0
432,6117,-0.0277628,0.0
441,6248,-0.0276853,0.0
450,6378,-0.0276628,0.0
459,6507,-0.0276461,0.0
468,6634,-0.0275922,0.0
477,6768,-0.0275667,0.0
486,6902,-0.0275216,0.0
495,7036,-0.027498,0.0
504,7208,-0.0274559,0.000292969
513,7389,-0.0275892,0.001953125
522,7569,-0.0277187,0.00488281
531,7739,-0.0273186,0.00898438
540,7960,-0.0184524,0.0162109
549,8141,0.0115373,0.0236328
558,8339,0.0646129,0.0333984
567,8534,0.115678,0.0447266
576,8765,0.151758,0.06015625
585,8957,0.194122,0.0748047
594,9141,0.271964,0.0902344
603,9320,0.365876,0.106738
612,9614,0.471543,0.136035
621,9798,0.557624,0.154395
630,9992,0.644751,0.173828
639,10238,0.735214,0.19834
648,10424,0.785114,0.216895
657,10611,0.828067,0.235645
666,10794,0.86501,0.253906
675,11032,0.90314,0.277734
684,11211,0.948145,0.295605
693,11398,0.996438,0.314355
702,11581,1.04004,0.332715
711,11763,1.07745,0.350879
720,12006,1.11115,0.375195
729,12192,1.1406,0.393848
738,12380,1.17145,0.412598
747,12573,1.20356,0.431836
756,12815,1.24623,0.456055
765,13002,1.27608,0.474805
774,13189,1.30477,0.493359
783,13379,1.33314,0.512402
792,13626,1.35821,0.537207
801,13872,1.39297,0.561816
810,14065,1.41805,0.581055
819,14247,1.44559,0.599219
828,14441,1.47466,0.618652
837,14690,1.50994,0.643555
846,14883,1.53221,0.662891
855,15077,1.55476,0.682227
864,15275,1.58183,0.702051
873,15523,1.61419,0.726855
882,15723,1.643,0.746777
891,15922,1.68256,0.766699
900,16114,1.7038,0.785938
909,16315,1.72443,0.805957
918,16575,1.74646,0.832031
927,16773,1.76514,0.851855
936,17029,1.7964,0.877441
945,17228,1.82053,0.897363
954,17543,1.87987,0.928809
963,17752,1.90951,0.949707
972,17945,1.9391,0.969043
981,18147,1.96709,0.98916
990,18345,1.99895,1.00898
999,18606,2.05315,1.03506
1008,18800,2.08693,1.05449
1017,18998,2.12247,1.07441
1026,19210,2.15607,1.09551
1035,19470,2.21318,1.12148
1044,19674,2.25213,1.14189
1053,19882,2.28914,1.1627
1062,20091,2.32713,1.18369
1071,20355,2.38658,1.21006
1080,20567,2.43196,1.23115
1089,20776,2.4919,1.25215
1098,20975,2.5332,1.27207
1107,21179,2.57462,1.29238
1116,21448,2.64515,1.31934
1125,21653,2.69141,1.33984
1134,21859,2.73626,1.36045
1143,22069,2.78247,1.38135
1152,22330,2.84985,1.40742
1161,22537,2.90024,1.42822
1170,22737,2.94869,1.44814
1179,22940,2.99508,1.46846
1188,23147,3.06451,1.48916
1197,23416,3.1136,1.51611
1206,23623,3.19204,1.53682
1215,23830,3.23882,1.55752
1224,24038,3.28515,1.57822
1233,24305,3.35156,1.60498
1242,24514,3.40097,1.62588
1251,24727,3.44758,1.64717
1260,24937,3.4927,1.66816
1269,25192,3.56328,1.69365
1278,25409,3.6106,1.71543
1287,25622,3.68467,1.73672
1296,25834,3.73086,1.75791
1305,26046,3.77779,1.7791
1314,26337,3.84157,1.8082
1323,26550,3.88765,1.82949
1332,26765,3.94756,1.85098
1341,26983,3.98264,1.87275
1350,27250,4.02709,1.89941
1359,27475,4.06076,1.92197
1368,27698,4.08914,1.94424
1377,27924,4.12293,1.9668
1386,28142,4.13741,1.98867
1395,28413,4.15364,2.01582
1404,28636,4.15845,2.03809
1413,28861,4.15478,2.06055
1422,29085,4.14766,2.08301
1431,29366,4.12575,2.11104
1440,29588,4.10575,2.1333
1449,29812,4.05702,2.15566
1458,30031,4.01208,2.17764
1467,30321,3.9263,2.20654
1476,30539,3.86951,2.22832
1485,30766,3.77677,2.25107
1494,30989,3.71874,2.27334
1503,31211,3.65587,2.29561
1512,31507,3.55469,2.3251
1521,31726,3.44891,2.34707
1530,31942,3.3797,2.36865
1539,32176,3.31171,2.39209
1548,32465,3.22375,2.421
1557,32690,3.1471,2.44346
1566,32915,3.10118,2.46592
1575,33139,3.04306,2.48828
1584,33362,3.0054,2.51055
1593,33643,2.95465,2.53867
1602,33865,2.92019,2.56094
1611,34096,2.87021,2.58398
1620,34317,2.83751,2.60615
1629,34610,2.78538,2.63545
1638,34828,2.7393,2.65732
1647,35062,2.67054,2.68066
1656,35289,2.63104,2.70342
1665,35563,2.57968,2.73076
1674,35790,2.54552,2.75352
1683,36027,2.49581,2.77715
1692,36256,2.46267,2.8001
1701,36537,2.4199,2.828125
1710,36815,2.37592,2.85596
1719,37039,2.33478,2.87832
1728,37264,2.31206,2.90088
1737,37490,2.29406,2.92344
1746,37791,2.25505,2.95352
1755,38023,2.23674,2.97666
1764,38257,2.21586,3.0002
1773,38490,2.19091,3.02344
1782,38792,2.16245,3.05361
1791,39028,2.13825,3.07715
1800,39266,2.12979,3.10098
1809,39495,2.12531,3.12393
1818,39735,2.10812,3.14795
1827,40028,2.08771,3.17725
1836,40261,2.07586,3.20049
1845,40492,2.06412,3.22363
1854,40728,2.05208,3.24727
1863,41109,2.02016,3.28535
1872,41346,1.99363,3.30898
1881,41588,1.98592,3.3332
1890,41811,1.97871,3.35557
1899,42036,1.97509,3.37803
1908,42312,1.96413,3.40557
1917,42539,1.95613,3.42832
1926,42761,1.93217,3.45059
1935,42985,1.91379,3.47295
1944,43294,1.88299,3.50381
1953,43527,1.86246,3.52715
1962,43774,1.8328,3.56572
1971,44007,1.81775,3.58906
1980,44321,1.79754,3.62041
1989,44566,1.78582,3.64492
1998,44806,1.76798,3.66895
2007,45052,1.75514,3.69355
2016,45302,1.74203,3.71855
2025,45608,1.72781,3.74912
2034,45849,1.71158,3.77324
2043,46090,1.70125,3.79727
2052,46333,1.69205,3.82158
2061,46641,1.68097,3.85244
2070,46887,1.66873,3.87695
2079,47128,1.66098,3.90117
2088,47371,1.65483,3.92539
2097,47613,1.65194,3.94961
2106,47982,1.64653,3.98652
2115,48225,1.62992,4.01084
2124,48474,1.61569,4.03574
2133,48723,1.59222,4.06064
2142,49037,1.57177,4.09199
2151,49279,1.55701,4.11631
2160,49535,1.54478,4.1418
2169,49786,1.5229,4.16689
2178,50089,1.50373,4.19727
2187,50333,1.48245,4.22158
2196,50583,1.46025,4.24668
2205,50834,1.43069,4.27168
2214,51086,1.40911,4.296875
2223,51384,1.39414,4.32666
2232,51636,1.37924,4.35195
2241,51878,1.36975,4.37607
2250,52133,1.35303,4.40156
2259,52444,1.33945,4.43271
2268,52700,1.32745,4.4583
2277,52952,1.32231,4.4835
2286,53205,1.31353,4.50879
2295,53510,1.29872,4.53926
2304,53759,1.27499,4.56416
2313,54012,1.25289,4.58955
2322,54265,1.23943,4.61484
2331,54528,1.22024,4.64111
2340,54836,1.19835,4.671875
2349,55087,1.17768,4.69697
2358,55336,1.16813,4.721875
2367,55592,1.15596,4.74746
2376,55904,1.15056,4.77861
2385,56159,1.14715,4.8042
2394,56417,1.14376,4.82998
2403,56669,1.13748,4.85527
2412,56921,1.13249,4.88037
2421,57222,1.12686,4.91055
2430,57478,1.11804,4.93613
2439,57733,1.11189,4.96162
2448,57991,1.10987,4.9874
2454,58221,1.10456,5.0